#HD132475                                                    
#                                                            
#  Heap-Lindler STIS                                         
# wavelength  ABmag  band
   2950.00  -18.885  2.74
   2952.74  -18.968  2.74
   2955.48  -18.975  2.74
   2958.22  -19.015  2.74
   2960.96  -19.014  2.74
   2963.70  -19.021  2.74
   2966.44  -18.843  2.74
   2969.18  -18.849  2.74
   2971.92  -18.917  2.74
   2974.66  -19.017  2.74
   2977.40  -19.083  2.74
   2980.14  -19.014  2.74
   2982.88  -18.901  2.74
   2985.62  -18.821  2.74
   2988.36  -18.943  2.74
   2991.10  -19.086  2.74
   2993.84  -19.049  2.74
   2996.58  -19.047  2.74
   2999.32  -18.999  2.74
   3002.06  -18.936  2.74
   3004.80  -19.020  2.74
   3007.54  -19.042  2.74
   3010.28  -19.078  2.74
   3013.02  -19.083  2.74
   3015.76  -19.037  2.74
   3018.50  -18.963  2.74
   3021.24  -18.935  2.74
   3023.98  -19.109  2.74
   3026.72  -19.125  2.74
   3029.46  -19.144  2.74
   3032.20  -19.134  2.74
   3034.94  -19.157  2.74
   3037.68  -19.136  2.74
   3040.42  -19.141  2.74
   3043.16  -19.121  2.74
   3045.90  -19.150  2.74
   3048.64  -19.163  2.74
   3051.38  -19.180  2.74
   3054.12  -19.157  2.74
   3056.86  -19.085  2.74
   3059.60  -19.039  2.74
   3062.34  -19.057  2.74
   3065.08  -18.976  2.74
   3067.82  -19.019  2.74
   3070.56  -19.072  2.74
   3073.30  -19.097  2.74
   3076.04  -19.108  2.74
   3078.78  -19.097  2.74
   3081.52  -19.141  2.74
   3084.26  -19.144  2.74
   3087.00  -19.088  2.74
   3089.74  -18.989  2.74
   3092.48  -18.972  2.74
   3095.22  -18.991  2.74
   3097.96  -18.986  2.74
   3100.70  -18.999  2.74
   3103.44  -19.125  2.74
   3106.18  -19.186  2.74
   3108.92  -19.229  2.74
   3111.66  -19.230  2.74
   3114.40  -19.215  2.74
   3117.14  -19.152  2.74
   3119.88  -19.113  2.74
   3122.62  -19.119  2.74
   3125.36  -19.104  2.74
   3128.10  -19.082  2.74
   3130.84  -19.119  2.74
   3133.58  -19.173  2.74
   3136.32  -19.201  2.74
   3139.06  -19.225  2.74
   3141.80  -19.137  2.74
   3144.54  -19.036  2.74
   3147.28  -19.150  2.74
   3150.02  -19.226  2.74
   3152.76  -19.206  2.74
   3155.50  -19.138  2.74
   3158.24  -19.033  2.74
   3160.98  -19.106  2.74
   3163.72  -19.170  2.74
   3166.46  -19.194  2.74
   3169.20  -19.255  2.74
   3171.94  -19.317  2.74
   3174.68  -19.315  2.74
   3177.42  -19.238  2.74
   3180.16  -19.134  2.74
   3182.90  -19.135  2.74
   3185.64  -19.218  2.74
   3188.38  -19.241  2.74
   3191.12  -19.184  2.74
   3193.86  -19.191  2.74
   3196.60  -19.255  2.74
   3199.34  -19.309  2.74
   3202.08  -19.345  2.74
   3204.82  -19.378  2.74
   3207.56  -19.349  2.74
   3210.30  -19.251  2.74
   3213.04  -19.229  2.74
   3215.78  -19.274  2.74
   3218.52  -19.342  2.74
   3221.26  -19.330  2.74
   3224.00  -19.325  2.74
   3226.74  -19.254  2.74
   3229.48  -19.229  2.74
   3232.22  -19.255  2.74
   3234.96  -19.247  2.74
   3237.70  -19.299  2.74
   3240.44  -19.363  2.74
   3243.18  -19.385  2.74
   3245.92  -19.383  2.74
   3248.66  -19.345  2.74
   3251.40  -19.357  2.74
   3254.14  -19.422  2.74
   3256.88  -19.471  2.74
   3259.62  -19.486  2.74
   3262.36  -19.472  2.74
   3265.10  -19.467  2.74
   3267.84  -19.484  2.74
   3270.58  -19.477  2.74
   3273.32  -19.470  2.74
   3276.06  -19.441  2.74
   3278.80  -19.442  2.74
   3281.54  -19.473  2.74
   3284.28  -19.470  2.74
   3287.02  -19.450  2.74
   3289.76  -19.521  2.74
   3292.50  -19.567  2.74
   3295.24  -19.571  2.74
   3297.98  -19.581  2.74
   3300.72  -19.566  2.74
   3303.46  -19.532  2.74
   3306.20  -19.506  2.74
   3308.94  -19.525  2.74
   3311.68  -19.560  2.74
   3314.42  -19.536  2.74
   3317.16  -19.539  2.74
   3319.90  -19.520  2.74
   3322.64  -19.504  2.74
   3325.38  -19.522  2.74
   3328.12  -19.513  2.74
   3330.86  -19.528  2.74
   3333.60  -19.532  2.74
   3336.34  -19.506  2.74
   3339.08  -19.497  2.74
   3341.82  -19.514  2.74
   3344.56  -19.552  2.74
   3347.30  -19.505  2.74
   3350.04  -19.516  2.74
   3352.78  -19.557  2.74
   3355.52  -19.575  2.74
   3358.26  -19.522  2.74
   3361.00  -19.459  2.74
   3363.74  -19.537  2.74
   3366.48  -19.540  2.74
   3369.22  -19.490  2.74
   3371.96  -19.471  2.74
   3374.70  -19.540  2.74
   3377.44  -19.562  2.74
   3380.18  -19.512  2.74
   3382.92  -19.538  2.74
   3385.66  -19.580  2.74
   3388.40  -19.591  2.74
   3391.14  -19.573  2.74
   3393.88  -19.574  2.74
   3396.62  -19.630  2.74
   3399.36  -19.668  2.74
   3402.10  -19.626  2.74
   3404.84  -19.590  2.74
   3407.58  -19.583  2.74
   3410.32  -19.592  2.74
   3413.06  -19.573  2.74
   3415.80  -19.592  2.74
   3418.54  -19.642  2.74
   3421.28  -19.640  2.74
   3424.02  -19.616  2.74
   3426.76  -19.642  2.74
   3429.50  -19.674  2.74
   3432.24  -19.669  2.74
   3434.98  -19.692  2.74
   3437.72  -19.634  2.74
   3440.46  -19.546  2.74
   3443.20  -19.536  2.74
   3445.94  -19.616  2.74
   3448.68  -19.652  2.74
   3451.42  -19.653  2.74
   3454.16  -19.667  2.74
   3456.90  -19.657  2.74
   3459.64  -19.633  2.74
   3462.38  -19.650  2.74
   3465.12  -19.661  2.74
   3467.86  -19.686  2.74
   3470.60  -19.680  2.74
   3473.34  -19.630  2.74
   3476.08  -19.609  2.74
   3478.82  -19.664  2.74
   3481.56  -19.691  2.74
   3484.30  -19.691  2.74
   3487.04  -19.698  2.74
   3489.78  -19.658  2.74
   3492.52  -19.652  2.74
   3495.26  -19.629  2.74
   3498.00  -19.701  2.74
   3500.74  -19.748  2.74
   3503.48  -19.719  2.74
   3506.22  -19.706  2.74
   3508.96  -19.701  2.74
   3511.70  -19.673  2.74
   3514.44  -19.677  2.74
   3517.18  -19.710  2.74
   3519.92  -19.699  2.74
   3522.66  -19.646  2.74
   3525.40  -19.609  2.74
   3528.14  -19.676  2.74
   3530.88  -19.733  2.74
   3533.62  -19.753  2.74
   3536.36  -19.769  2.74
   3539.10  -19.786  2.74
   3541.84  -19.791  2.74
   3544.58  -19.799  2.74
   3547.32  -19.802  2.74
   3550.06  -19.809  2.74
   3552.80  -19.784  2.74
   3555.54  -19.777  2.74
   3558.28  -19.781  2.74
   3561.02  -19.785  2.74
   3563.76  -19.753  2.74
   3566.50  -19.703  2.74
   3569.24  -19.663  2.74
   3571.98  -19.674  2.74
   3574.72  -19.699  2.74
   3577.46  -19.727  2.74
   3580.20  -19.696  2.74
   3582.94  -19.684  2.74
   3585.68  -19.645  2.74
   3588.42  -19.654  2.74
   3591.16  -19.746  2.74
   3593.90  -19.797  2.74
   3596.64  -19.817  2.74
   3599.38  -19.822  2.74
   3602.12  -19.800  2.74
   3604.86  -19.774  2.74
   3607.60  -19.752  2.74
   3610.34  -19.750  2.74
   3613.08  -19.763  2.74
   3615.82  -19.781  2.74
   3618.56  -19.754  2.74
   3621.30  -19.781  2.74
   3624.04  -19.822  2.74
   3626.78  -19.857  2.74
   3629.52  -19.819  2.74
   3632.26  -19.761  2.74
   3635.00  -19.791  2.74
   3637.74  -19.842  2.74
   3640.48  -19.868  2.74
   3643.22  -19.827  2.74
   3645.96  -19.795  2.74
   3648.70  -19.811  2.74
   3651.44  -19.839  2.74
   3654.18  -19.885  2.74
   3656.92  -19.914  2.74
   3659.66  -19.908  2.74
   3662.40  -19.911  2.74
   3665.14  -19.905  2.74
   3667.88  -19.892  2.74
   3670.62  -19.901  2.74
   3673.36  -19.904  2.74
   3676.10  -19.909  2.74
   3678.84  -19.884  2.74
   3681.58  -19.868  2.74
   3684.32  -19.860  2.74
   3687.06  -19.863  2.74
   3689.80  -19.900  2.74
   3692.54  -19.931  2.74
   3695.28  -19.936  2.74
   3698.02  -19.959  2.74
   3700.76  -19.968  2.74
   3703.50  -19.895  2.74
   3706.24  -19.853  2.74
   3708.98  -19.877  2.74
   3711.72  -19.908  2.74
   3714.46  -19.976  2.74
   3717.20  -19.991  2.74
   3719.94  -19.883  2.74
   3722.68  -19.858  2.74
   3725.42  -19.975  2.74
   3728.16  -20.017  2.74
   3730.90  -19.951  2.74
   3733.64  -19.809  2.74
   3736.38  -19.802  2.74
   3739.12  -19.967  2.74
   3741.86  -20.038  2.74
   3744.60  -19.979  2.74
   3747.34  -19.850  2.74
   3750.08  -19.805  2.74
   3752.82  -19.956  2.74
   3755.56  -20.078  2.74
   3758.30  -20.066  2.74
   3761.04  -20.063  2.74
   3763.78  -20.089  2.74
   3766.52  -20.051  2.74
   3769.26  -19.937  2.74
   3772.00  -19.964  2.74
   3774.74  -20.086  2.74
   3777.48  -20.166  2.74
   3780.22  -20.227  2.74
   3782.96  -20.241  2.74
   3785.70  -20.201  2.74
   3788.44  -20.168  2.74
   3791.18  -20.152  2.74
   3793.92  -20.078  2.74
   3796.66  -19.936  2.74
   3799.40  -19.953  2.74
   3802.14  -20.121  2.74
   3804.88  -20.206  2.74
   3807.62  -20.234  2.74
   3810.36  -20.249  2.74
   3813.10  -20.211  2.74
   3815.84  -20.188  2.74
   3818.58  -20.189  2.74
   3821.32  -20.178  2.74
   3824.06  -20.147  2.74
   3826.80  -20.094  2.74
   3829.54  -20.039  2.74
   3832.28  -19.913  2.74
   3835.02  -19.796  2.74
   3837.76  -19.857  2.74
   3840.50  -20.034  2.74
   3843.24  -20.176  2.74
   3845.98  -20.244  2.74
   3848.72  -20.270  2.74
   3851.46  -20.291  2.74
   3854.20  -20.298  2.74
   3856.94  -20.259  2.74
   3859.68  -20.243  2.74
   3862.42  -20.289  2.74
   3865.16  -20.318  2.74
   3867.90  -20.319  2.74
   3870.64  -20.280  2.74
   3873.38  -20.234  2.74
   3876.12  -20.232  2.74
   3878.86  -20.235  2.74
   3881.60  -20.236  2.74
   3884.34  -20.158  2.74
   3887.08  -19.995  2.74
   3889.82  -19.962  2.74
   3892.56  -20.086  2.74
   3895.30  -20.177  2.74
   3898.04  -20.216  2.74
   3900.78  -20.230  2.74
   3903.52  -20.220  2.74
   3906.26  -20.232  2.74
   3909.00  -20.288  2.74
   3911.74  -20.309  2.74
   3914.48  -20.301  2.74
   3917.22  -20.274  2.74
   3919.96  -20.252  2.74
   3922.70  -20.248  2.74
   3925.44  -20.197  2.74
   3928.18  -19.993  2.74
   3930.92  -19.565  2.74
   3933.66  -19.193  2.74
   3936.40  -19.539  2.74
   3939.14  -19.991  2.74
   3941.88  -20.182  2.74
   3944.62  -20.245  2.74
   3947.36  -20.279  2.74
   3950.10  -20.296  2.74
   3952.84  -20.302  2.74
   3955.58  -20.298  2.74
   3958.32  -20.283  2.74
   3961.06  -20.212  2.74
   3963.80  -20.015  2.74
   3966.54  -19.620  2.74
   3969.28  -19.400  2.74
   3972.02  -19.800  2.74
   3974.76  -20.088  2.74
   3977.50  -20.229  2.74
   3980.24  -20.346  2.74
   3982.98  -20.356  2.74
   3985.72  -20.377  2.74
   3988.46  -20.402  2.74
   3991.20  -20.419  2.74
   3993.94  -20.423  2.74
   3996.68  -20.401  2.74
   3999.42  -20.414  2.74
   4002.16  -20.433  2.74
   4004.90  -20.422  2.74
   4007.64  -20.428  2.74
   4010.38  -20.455  2.74
   4013.12  -20.457  2.74
   4015.86  -20.454  2.74
   4018.60  -20.464  2.74
   4021.34  -20.469  2.74
   4024.08  -20.465  2.74
   4026.82  -20.463  2.74
   4029.56  -20.447  2.74
   4032.30  -20.426  2.74
   4035.04  -20.448  2.74
   4037.78  -20.484  2.74
   4040.52  -20.484  2.74
   4043.26  -20.455  2.74
   4046.00  -20.440  2.74
   4048.74  -20.473  2.74
   4051.48  -20.492  2.74
   4054.22  -20.482  2.74
   4056.96  -20.479  2.74
   4059.70  -20.477  2.74
   4062.44  -20.464  2.74
   4065.18  -20.454  2.74
   4067.92  -20.466  2.74
   4070.66  -20.472  2.74
   4073.40  -20.463  2.74
   4076.14  -20.445  2.74
   4078.88  -20.448  2.74
   4081.62  -20.476  2.74
   4084.36  -20.481  2.74
   4087.10  -20.491  2.74
   4089.84  -20.495  2.74
   4092.58  -20.478  2.74
   4095.32  -20.433  2.74
   4098.06  -20.333  2.74
   4100.80  -20.204  2.74
   4103.54  -20.225  2.74
   4106.28  -20.379  2.74
   4109.02  -20.447  2.74
   4111.76  -20.477  2.74
   4114.50  -20.501  2.74
   4117.24  -20.506  2.74
   4119.98  -20.493  2.74
   4122.72  -20.508  2.74
   4125.46  -20.520  2.74
   4128.20  -20.518  2.74
   4130.94  -20.506  2.74
   4133.68  -20.498  2.74
   4136.42  -20.525  2.74
   4139.16  -20.539  2.74
   4141.90  -20.526  2.74
   4144.64  -20.516  2.74
   4147.38  -20.529  2.74
   4150.12  -20.522  2.74
   4152.86  -20.515  2.74
   4155.60  -20.515  2.74
   4158.34  -20.533  2.74
   4161.08  -20.544  2.74
   4163.82  -20.550  2.74
   4166.56  -20.551  2.74
   4169.30  -20.530  2.74
   4172.04  -20.507  2.74
   4174.78  -20.496  2.74
   4177.52  -20.517  2.74
   4180.26  -20.527  2.74
   4183.00  -20.528  2.74
   4185.74  -20.528  2.74
   4188.48  -20.520  2.74
   4191.22  -20.542  2.74
   4193.96  -20.547  2.74
   4196.70  -20.534  2.74
   4199.44  -20.517  2.74
   4202.18  -20.525  2.74
   4204.92  -20.538  2.74
   4207.66  -20.552  2.74
   4210.40  -20.558  2.74
   4213.14  -20.544  2.74
   4215.88  -20.523  2.74
   4218.62  -20.535  2.74
   4221.36  -20.549  2.74
   4224.10  -20.507  2.74
   4226.84  -20.473  2.74
   4229.58  -20.526  2.74
   4232.32  -20.548  2.74
   4235.06  -20.530  2.74
   4237.80  -20.536  2.74
   4240.54  -20.553  2.74
   4243.28  -20.555  2.74
   4246.02  -20.541  2.74
   4248.76  -20.521  2.74
   4251.50  -20.539  2.74
   4254.24  -20.559  2.74
   4256.98  -20.558  2.74
   4259.72  -20.550  2.74
   4262.46  -20.561  2.74
   4265.20  -20.577  2.74
   4267.94  -20.559  2.74
   4270.68  -20.532  2.74
   4273.42  -20.521  2.74
   4276.16  -20.543  2.74
   4278.90  -20.562  2.74
   4281.64  -20.551  2.74
   4284.38  -20.536  2.74
   4287.12  -20.516  2.74
   4289.86  -20.490  2.74
   4292.60  -20.500  2.74
   4295.34  -20.494  2.74
   4298.08  -20.434  2.74
   4300.82  -20.377  2.74
   4303.56  -20.384  2.74
   4306.30  -20.390  2.74
   4309.04  -20.383  2.74
   4311.78  -20.429  2.74
   4314.52  -20.513  2.74
   4317.26  -20.582  2.74
   4320.00  -20.587  2.74
   4322.74  -20.551  2.74
   4325.48  -20.526  2.74
   4328.22  -20.563  2.74
   4330.96  -20.587  2.74
   4333.70  -20.563  2.74
   4336.44  -20.466  2.74
   4339.18  -20.324  2.74
   4341.92  -20.331  2.74
   4344.66  -20.489  2.74
   4347.40  -20.567  2.74
   4350.14  -20.576  2.74
   4352.88  -20.570  2.74
   4355.62  -20.603  2.74
   4358.36  -20.618  2.74
   4361.10  -20.627  2.74
   4363.84  -20.641  2.74
   4366.58  -20.627  2.74
   4369.32  -20.614  2.74
   4372.06  -20.615  2.74
   4374.80  -20.602  2.74
   4377.54  -20.632  2.74
   4380.28  -20.630  2.74
   4383.02  -20.594  2.74
   4385.76  -20.596  2.74
   4388.50  -20.631  2.74
   4391.24  -20.635  2.74
   4393.98  -20.633  2.74
   4396.72  -20.632  2.74
   4399.46  -20.634  2.74
   4402.20  -20.625  2.74
   4404.94  -20.630  2.74
   4407.68  -20.638  2.74
   4410.42  -20.673  2.74
   4413.16  -20.668  2.74
   4415.90  -20.641  2.74
   4418.64  -20.642  2.74
   4421.38  -20.682  2.74
   4424.12  -20.667  2.74
   4426.86  -20.665  2.74
   4429.60  -20.687  2.74
   4432.34  -20.705  2.74
   4435.08  -20.667  2.74
   4437.82  -20.690  2.74
   4440.56  -20.681  2.74
   4443.30  -20.655  2.74
   4446.04  -20.677  2.74
   4448.78  -20.685  2.74
   4451.52  -20.682  2.74
   4454.26  -20.662  2.74
   4457.00  -20.671  2.74
   4459.74  -20.679  2.74
   4462.48  -20.681  2.74
   4465.22  -20.686  2.74
   4467.96  -20.676  2.74
   4470.70  -20.690  2.74
   4473.44  -20.704  2.74
   4476.18  -20.710  2.74
   4478.92  -20.703  2.74
   4481.66  -20.685  2.74
   4484.40  -20.708  2.74
   4487.14  -20.713  2.74
   4489.88  -20.700  2.74
   4492.62  -20.703  2.74
   4495.36  -20.702  2.74
   4498.10  -20.714  2.74
   4500.84  -20.714  2.74
   4503.58  -20.728  2.74
   4506.32  -20.735  2.74
   4509.06  -20.721  2.74
   4511.80  -20.733  2.74
   4514.54  -20.726  2.74
   4517.28  -20.721  2.74
   4520.02  -20.717  2.74
   4522.76  -20.706  2.74
   4525.50  -20.705  2.74
   4528.24  -20.690  2.74
   4530.98  -20.693  2.74
   4533.72  -20.697  2.74
   4536.46  -20.700  2.74
   4539.20  -20.736  2.74
   4541.94  -20.733  2.74
   4544.68  -20.725  2.74
   4547.42  -20.709  2.74
   4550.16  -20.693  2.74
   4552.90  -20.707  2.74
   4555.64  -20.705  2.74
   4558.38  -20.739  2.74
   4561.12  -20.741  2.74
   4563.86  -20.729  2.74
   4566.60  -20.747  2.74
   4569.34  -20.740  2.74
   4572.08  -20.735  2.74
   4574.82  -20.751  2.74
   4577.56  -20.755  2.74
   4580.30  -20.741  2.74
   4583.04  -20.735  2.74
   4585.78  -20.745  2.74
   4588.52  -20.747  2.74
   4591.26  -20.751  2.74
   4594.00  -20.752  2.74
   4596.74  -20.751  2.74
   4599.48  -20.759  2.74
   4602.22  -20.753  2.74
   4604.96  -20.760  2.74
   4607.70  -20.772  2.74
   4610.44  -20.772  2.74
   4613.18  -20.770  2.74
   4615.92  -20.772  2.74
   4618.66  -20.770  2.74
   4621.40  -20.778  2.74
   4624.14  -20.776  2.74
   4626.88  -20.772  2.74
   4629.62  -20.774  2.74
   4632.36  -20.774  2.74
   4635.10  -20.773  2.74
   4637.84  -20.779  2.74
   4640.58  -20.784  2.74
   4643.32  -20.787  2.74
   4646.06  -20.772  2.74
   4648.80  -20.772  2.74
   4651.54  -20.782  2.74
   4654.28  -20.773  2.74
   4657.02  -20.785  2.74
   4659.76  -20.795  2.74
   4662.50  -20.792  2.74
   4665.24  -20.785  2.74
   4667.98  -20.779  2.74
   4670.72  -20.786  2.74
   4673.46  -20.794  2.74
   4676.20  -20.789  2.74
   4678.94  -20.790  2.74
   4681.68  -20.795  2.74
   4684.42  -20.803  2.74
   4687.16  -20.806  2.74
   4689.90  -20.796  2.74
   4692.64  -20.796  2.74
   4695.38  -20.798  2.74
   4698.12  -20.800  2.74
   4700.86  -20.788  2.74
   4703.60  -20.781  2.74
   4706.34  -20.788  2.74
   4709.08  -20.791  2.74
   4711.82  -20.804  2.74
   4714.56  -20.799  2.74
   4717.30  -20.814  2.74
   4720.04  -20.806  2.74
   4722.78  -20.815  2.74
   4725.52  -20.821  2.74
   4728.26  -20.814  2.74
   4731.00  -20.816  2.74
   4733.74  -20.816  2.74
   4736.48  -20.817  2.74
   4739.22  -20.830  2.74
   4741.96  -20.822  2.74
   4744.70  -20.816  2.74
   4747.44  -20.826  2.74
   4750.18  -20.821  2.74
   4752.92  -20.824  2.74
   4755.66  -20.819  2.74
   4758.40  -20.820  2.74
   4761.14  -20.811  2.74
   4763.88  -20.805  2.74
   4766.62  -20.819  2.74
   4769.36  -20.822  2.74
   4772.10  -20.816  2.74
   4774.84  -20.830  2.74
   4777.58  -20.831  2.74
   4780.32  -20.827  2.74
   4783.06  -20.821  2.74
   4785.80  -20.823  2.74
   4788.54  -20.824  2.74
   4791.28  -20.825  2.74
   4794.02  -20.838  2.74
   4796.76  -20.834  2.74
   4799.50  -20.845  2.74
   4802.24  -20.837  2.74
   4804.98  -20.826  2.74
   4807.72  -20.836  2.74
   4810.46  -20.838  2.74
   4813.20  -20.841  2.74
   4815.94  -20.847  2.74
   4818.68  -20.845  2.74
   4821.42  -20.837  2.74
   4824.16  -20.835  2.74
   4826.90  -20.851  2.74
   4829.64  -20.843  2.74
   4832.38  -20.846  2.74
   4835.12  -20.834  2.74
   4837.86  -20.831  2.74
   4840.60  -20.839  2.74
   4843.34  -20.841  2.74
   4846.08  -20.837  2.74
   4848.82  -20.826  2.74
   4851.56  -20.817  2.74
   4854.30  -20.783  2.74
   4857.04  -20.721  2.74
   4859.78  -20.563  2.74
   4862.52  -20.563  2.74
   4865.26  -20.703  2.74
   4868.00  -20.769  2.74
   4870.74  -20.790  2.74
   4873.48  -20.814  2.74
   4876.22  -20.823  2.74
   4878.96  -20.832  2.74
   4881.70  -20.846  2.74
   4884.44  -20.840  2.74
   4887.18  -20.853  2.74
   4889.92  -20.833  2.74
   4892.66  -20.838  2.74
   4895.40  -20.861  2.74
   4898.14  -20.865  2.74
   4900.88  -20.864  2.74
   4903.62  -20.858  2.74
   4906.36  -20.870  2.74
   4909.10  -20.862  2.74
   4911.84  -20.867  2.74
   4914.58  -20.867  2.74
   4917.32  -20.860  2.74
   4920.06  -20.833  2.74
   4922.80  -20.840  2.74
   4925.54  -20.859  2.74
   4928.28  -20.872  2.74
   4931.02  -20.871  2.74
   4933.76  -20.851  2.74
   4936.50  -20.859  2.74
   4939.24  -20.858  2.74
   4941.98  -20.886  2.74
   4944.72  -20.883  2.74
   4947.46  -20.882  2.74
   4950.20  -20.894  2.74
   4952.94  -20.883  2.74
   4955.68  -20.863  2.74
   4958.42  -20.851  2.74
   4961.16  -20.879  2.74
   4963.90  -20.880  2.74
   4966.64  -20.893  2.74
   4969.38  -20.891  2.74
   4972.12  -20.892  2.74
   4974.86  -20.888  2.74
   4977.60  -20.887  2.74
   4980.34  -20.873  2.74
   4983.08  -20.854  2.74
   4985.82  -20.869  2.74
   4988.56  -20.877  2.74
   4991.30  -20.881  2.74
   4994.04  -20.882  2.74
   4996.78  -20.887  2.74
   4999.52  -20.878  2.74
   5002.26  -20.878  2.74
   5005.00  -20.863  2.74
   5007.74  -20.866  2.74
   5010.48  -20.868  2.74
   5013.22  -20.884  2.74
   5015.96  -20.869  2.74
   5018.70  -20.867  2.74
   5021.44  -20.879  2.74
   5024.18  -20.892  2.74
   5026.92  -20.897  2.74
   5029.66  -20.897  2.74
   5032.40  -20.898  2.74
   5035.14  -20.892  2.74
   5037.88  -20.888  2.74
   5040.62  -20.871  2.74
   5043.36  -20.879  2.74
   5046.10  -20.898  2.74
   5048.84  -20.895  2.74
   5051.58  -20.887  2.74
   5054.32  -20.907  2.74
   5057.06  -20.916  2.74
   5059.80  -20.914  2.74
   5062.54  -20.911  2.74
   5065.28  -20.908  2.74
   5068.02  -20.907  2.74
   5070.76  -20.908  2.74
   5073.50  -20.907  2.74
   5076.24  -20.906  2.74
   5078.98  -20.890  2.74
   5081.72  -20.889  2.74
   5084.46  -20.906  2.74
   5087.20  -20.911  2.74
   5089.94  -20.918  2.74
   5092.68  -20.926  2.74
   5095.42  -20.925  2.74
   5098.16  -20.903  2.74
   5100.90  -20.908  2.74
   5103.64  -20.920  2.74
   5106.38  -20.909  2.74
   5109.12  -20.899  2.74
   5111.86  -20.909  2.74
   5114.60  -20.922  2.74
   5117.34  -20.931  2.74
   5120.08  -20.930  2.74
   5122.82  -20.918  2.74
   5125.56  -20.913  2.74
   5128.30  -20.911  2.74
   5131.04  -20.921  2.74
   5133.78  -20.912  2.74
   5136.52  -20.909  2.74
   5139.26  -20.899  2.74
   5142.00  -20.900  2.74
   5144.74  -20.921  2.74
   5147.48  -20.929  2.74
   5150.22  -20.923  2.74
   5152.96  -20.922  2.74
   5155.70  -20.925  2.74
   5158.44  -20.935  2.74
   5161.18  -20.937  2.74
   5163.92  -20.915  2.74
   5166.66  -20.859  2.74
   5169.40  -20.839  2.74
   5172.14  -20.837  2.74
   5174.88  -20.882  2.74
   5177.62  -20.927  2.74
   5180.36  -20.922  2.74
   5183.10  -20.861  2.74
   5185.84  -20.869  2.74
   5188.58  -20.906  2.74
   5191.32  -20.908  2.74
   5194.06  -20.913  2.74
   5196.80  -20.927  2.74
   5199.54  -20.933  2.74
   5202.28  -20.930  2.74
   5205.02  -20.910  2.74
   5207.76  -20.905  2.74
   5210.50  -20.924  2.74
   5213.24  -20.946  2.74
   5215.98  -20.938  2.74
   5218.72  -20.947  2.74
   5221.46  -20.954  2.74
   5224.20  -20.944  2.74
   5226.94  -20.914  2.74
   5229.68  -20.928  2.74
   5232.42  -20.932  2.74
   5235.16  -20.938  2.74
   5237.90  -20.955  2.74
   5240.64  -20.961  2.74
   5243.38  -20.964  2.74
   5246.12  -20.961  2.74
   5248.86  -20.957  2.74
   5251.60  -20.954  2.74
   5254.34  -20.962  2.74
   5257.08  -20.971  2.74
   5259.82  -20.959  2.74
   5262.56  -20.937  2.74
   5265.30  -20.909  2.74
   5268.04  -20.911  2.74
   5270.78  -20.920  2.74
   5273.52  -20.940  2.74
   5276.26  -20.958  2.74
   5279.00  -20.967  2.74
   5281.74  -20.955  2.74
   5284.48  -20.966  2.74
   5287.22  -20.979  2.74
   5289.96  -20.983  2.74
   5292.70  -20.984  2.74
   5295.44  -20.982  2.74
   5298.18  -20.971  2.74
   5300.92  -20.968  2.74
   5303.66  -20.975  2.74
   5306.40  -20.981  2.74
   5309.14  -20.989  2.74
   5311.88  -20.983  2.74
   5314.62  -20.970  2.74
   5317.36  -20.973  2.74
   5320.10  -20.986  2.74
   5322.84  -20.973  2.74
   5325.58  -20.959  2.74
   5328.32  -20.943  2.74
   5331.06  -20.963  2.74
   5333.80  -20.983  2.74
   5336.54  -20.977  2.74
   5339.28  -20.969  2.74
   5342.02  -20.973  2.74
   5344.76  -20.978  2.74
   5347.50  -20.978  2.74
   5350.24  -20.980  2.74
   5352.98  -20.985  2.74
   5355.72  -20.989  2.74
   5358.46  -20.994  2.74
   5361.20  -20.994  2.74
   5363.94  -20.977  2.74
   5366.68  -20.974  2.74
   5369.42  -20.974  2.74
   5372.16  -20.974  2.74
   5374.90  -20.988  2.74
   5377.64  -20.996  2.74
   5380.38  -20.991  2.74
   5383.12  -20.987  2.74
   5385.86  -20.991  2.74
   5388.60  -20.996  2.74
   5391.34  -20.991  2.74
   5394.08  -20.983  2.74
   5396.82  -20.963  2.74
   5399.56  -20.977  2.74
   5402.30  -20.984  2.74
   5405.04  -20.968  2.74
   5407.78  -20.977  2.74
   5410.52  -20.986  2.74
   5413.26  -20.991  2.74
   5416.00  -20.997  2.74
   5418.74  -20.996  2.74
   5421.48  -20.995  2.74
   5424.22  -20.997  2.74
   5426.96  -20.992  2.74
   5429.70  -20.988  2.74
   5432.44  -20.991  2.74
   5435.18  -20.995  2.74
   5437.92  -20.998  2.74
   5440.66  -20.995  2.74
   5443.40  -20.996  2.74
   5446.14  -20.996  2.74
   5448.88  -21.001  2.74
   5451.62  -21.008  2.74
   5454.36  -20.995  2.74
   5457.10  -20.997  2.74
   5459.84  -21.010  2.74
   5462.58  -21.010  2.74
   5465.32  -21.015  2.74
   5468.06  -21.019  2.74
   5470.80  -21.022  2.74
   5473.54  -21.017  2.74
   5476.28  -21.006  2.74
   5479.02  -21.013  2.74
   5481.76  -21.019  2.74
   5484.50  -21.023  2.74
   5487.24  -21.023  2.74
   5489.98  -21.023  2.74
   5492.72  -21.028  2.74
   5495.46  -21.024  2.74
   5498.20  -21.017  2.74
   5500.94  -21.020  2.74
   5503.68  -21.021  2.74
   5506.42  -21.015  2.74
   5509.16  -21.015  2.74
   5511.90  -21.017  2.74
   5514.64  -21.019  2.74
   5517.38  -21.024  2.74
   5520.12  -21.028  2.74
   5522.86  -21.026  2.74
   5525.60  -21.020  2.74
   5528.34  -21.016  2.74
   5531.08  -21.024  2.74
   5533.82  -21.032  2.74
   5536.56  -21.037  2.74
   5539.30  -21.037  2.74
   5542.04  -21.048  2.74
   5544.78  -21.050  2.74
   5547.52  -21.041  2.74
   5550.26  -21.041  2.74
   5553.00  -21.041  2.74
   5555.74  -21.044  2.74
   5558.48  -21.046  2.74
   5561.22  -21.041  2.74
   5563.96  -21.039  2.74
   5566.70  -21.042  2.74
   5569.44  -21.040  2.74
   5572.18  -21.036  2.74
   5574.92  -21.036  2.74
   5577.66  -21.042  2.74
   5580.40  -21.044  2.74
   5583.14  -21.037  2.74
   5585.88  -21.027  2.74
   5588.62  -21.023  2.74
   5591.36  -21.031  2.74
   5594.10  -21.043  2.74
   5596.84  -21.043  2.74
   5599.58  -21.036  2.74
   5602.32  -21.036  2.74
   5605.06  -21.045  2.74
   5607.80  -21.054  2.74
   5610.54  -21.052  2.74
   5613.28  -21.049  2.74
   5616.02  -21.047  2.74
   5618.76  -21.055  2.74
   5621.50  -21.064  2.74
   5624.24  -21.063  2.74
   5626.98  -21.064  2.74
   5629.72  -21.067  2.74
   5632.46  -21.057  2.74
   5635.20  -21.051  2.74
   5637.94  -21.059  2.74
   5640.68  -21.063  2.74
   5643.42  -21.067  2.74
   5646.16  -21.073  2.74
   5648.90  -21.088  2.74
   5651.64  -21.088  2.74
   5654.38  -21.051  2.74
   5657.12  -21.048  2.74
   5659.86  -21.058  2.74
   5662.60  -21.060  2.74
   5665.34  -21.061  2.74
   5668.08  -21.063  2.74
   5670.82  -21.059  2.74
   5673.56  -21.044  2.74
   5676.30  -21.047  2.74
   5679.04  -21.059  2.74
   5681.78  -21.059  2.74
   5684.52  -21.056  2.74
   5687.26  -21.058  2.74
   5690.00  -21.063  2.74
   5692.74  -21.075  2.74
   5695.48  -21.074  2.74
   5698.22  -21.057  2.74
   5700.96  -21.055  2.74
   5703.70  -21.058  2.74
   5706.44  -21.060  2.74
   5709.18  -21.060  2.74
   5711.92  -21.054  2.74
   5714.66  -21.056  2.74
   5717.40  -21.073  2.74
   5720.14  -21.080  2.74
   5722.88  -21.081  2.74
   5725.62  -21.079  2.74
   5728.36  -21.074  2.74
   5731.10  -21.069  2.74
   5733.84  -21.064  2.74
   5736.58  -21.063  2.74
   5739.32  -21.064  2.74
   5742.06  -21.068  2.74
   5744.80  -21.068  2.74
   5747.54  -21.067  2.74
   5750.28  -21.072  2.74
   5753.02  -21.077  2.74
   5755.76  -21.077  2.74
   5758.50  -21.077  2.74
   5761.24  -21.075  2.74
   5763.98  -21.077  2.74
   5766.72  -21.083  2.74
   5769.46  -21.089  2.74
   5772.20  -21.095  2.74
   5774.94  -21.093  2.74
   5777.68  -21.090  2.74
   5780.42  -21.085  2.74
   5783.16  -21.084  2.74
   5785.90  -21.087  2.74
   5788.64  -21.091  2.74
   5791.38  -21.097  2.74
   5794.12  -21.091  2.74
   5796.86  -21.086  2.74
   5799.60  -21.100  2.74
   5802.34  -21.105  2.74
   5805.08  -21.089  2.74
   5807.82  -21.086  2.74
   5810.56  -21.092  2.74
   5813.30  -21.096  2.74
   5816.04  -21.100  2.74
   5818.78  -21.099  2.74
   5821.52  -21.099  2.74
   5824.26  -21.101  2.74
   5827.00  -21.102  2.74
   5829.74  -21.105  2.74
   5832.48  -21.098  2.74
   5835.22  -21.085  2.74
   5837.96  -21.085  2.74
   5840.70  -21.090  2.74
   5843.44  -21.097  2.74
   5846.18  -21.102  2.74
   5848.92  -21.106  2.74
   5851.66  -21.106  2.74
   5854.40  -21.101  2.74
   5857.14  -21.100  2.74
   5859.88  -21.099  2.74
   5862.62  -21.089  2.74
   5865.36  -21.090  2.74
   5868.10  -21.128  2.74
   5870.84  -21.140  2.74
   5873.58  -21.111  2.74
   5876.32  -21.108  2.74
   5879.06  -21.115  2.74
   5881.80  -21.101  2.74
   5884.54  -21.082  2.74
   5887.28  -21.068  2.74
   5890.02  -21.061  2.74
   5892.76  -21.065  2.74
   5895.50  -21.070  2.74
   5898.24  -21.078  2.74
   5900.98  -21.084  2.74
   5903.72  -21.089  2.74
   5906.46  -21.097  2.74
   5909.20  -21.102  2.74
   5911.94  -21.095  2.74
   5914.68  -21.093  2.74
   5917.42  -21.101  2.74
   5920.16  -21.104  2.74
   5922.90  -21.104  2.74
   5925.64  -21.098  2.74
   5928.38  -21.092  2.74
   5931.12  -21.099  2.74
   5933.86  -21.105  2.74
   5936.60  -21.105  2.74
   5939.34  -21.109  2.74
   5942.08  -21.117  2.74
   5944.82  -21.119  2.74
   5947.56  -21.116  2.74
   5950.30  -21.111  2.74
   5953.04  -21.106  2.74
   5955.78  -21.107  2.74
   5958.52  -21.111  2.74
   5961.26  -21.120  2.74
   5964.00  -21.125  2.74
   5966.74  -21.127  2.74
   5969.48  -21.133  2.74
   5972.22  -21.136  2.74
   5974.96  -21.121  2.74
   5977.70  -21.110  2.74
   5980.44  -21.115  2.74
   5983.18  -21.121  2.74
   5985.92  -21.130  2.74
   5988.66  -21.122  2.74
   5991.40  -21.106  2.74
   5994.14  -21.113  2.74
   5996.88  -21.125  2.74
   5999.62  -21.129  2.74
   6002.36  -21.132  2.74
   6005.10  -21.136  2.74
   6007.84  -21.133  2.74
   6010.58  -21.122  2.74
   6013.32  -21.119  2.74
   6016.06  -21.121  2.74
   6018.80  -21.132  2.74
   6021.54  -21.139  2.74
   6024.28  -21.132  2.74
   6027.02  -21.126  2.74
   6029.76  -21.123  2.74
   6032.50  -21.124  2.74
   6035.24  -21.129  2.74
   6037.98  -21.133  2.74
   6040.72  -21.134  2.74
   6043.46  -21.128  2.74
   6046.20  -21.127  2.74
   6048.94  -21.135  2.74
   6051.68  -21.138  2.74
   6054.42  -21.138  2.74
   6057.16  -21.135  2.74
   6059.90  -21.131  2.74
   6062.64  -21.135  2.74
   6065.38  -21.136  2.74
   6068.12  -21.127  2.74
   6070.86  -21.122  2.74
   6073.60  -21.123  2.74
   6076.34  -21.128  2.74
   6079.08  -21.136  2.74
   6081.82  -21.141  2.74
   6084.56  -21.143  2.74
   6087.30  -21.133  2.74
   6090.04  -21.127  2.74
   6092.78  -21.132  2.74
   6095.52  -21.135  2.74
   6098.26  -21.139  2.74
   6101.00  -21.138  2.74
   6103.74  -21.135  2.74
   6106.48  -21.142  2.74
   6109.22  -21.147  2.74
   6111.96  -21.139  2.74
   6114.70  -21.135  2.74
   6117.44  -21.133  2.74
   6120.18  -21.135  2.74
   6122.92  -21.139  2.74
   6125.66  -21.143  2.74
   6128.40  -21.145  2.74
   6131.14  -21.142  2.74
   6133.88  -21.137  2.74
   6136.62  -21.130  2.74
   6139.36  -21.124  2.74
   6142.10  -21.117  2.74
   6144.84  -21.121  2.74
   6147.58  -21.130  2.74
   6150.32  -21.123  2.74
   6153.06  -21.118  2.74
   6155.80  -21.125  2.74
   6158.54  -21.128  2.74
   6161.28  -21.125  2.74
   6164.02  -21.129  2.74
   6166.76  -21.137  2.74
   6169.50  -21.141  2.74
   6172.24  -21.143  2.74
   6174.98  -21.138  2.74
   6177.72  -21.136  2.74
   6180.46  -21.144  2.74
   6183.20  -21.147  2.74
   6185.94  -21.147  2.74
   6188.68  -21.143  2.74
   6191.42  -21.137  2.74
   6194.16  -21.138  2.74
   6196.90  -21.144  2.74
   6199.64  -21.154  2.74
   6202.38  -21.164  2.74
   6205.12  -21.178  2.74
   6207.86  -21.171  2.74
   6210.60  -21.146  2.74
   6213.34  -21.153  2.74
   6216.08  -21.168  2.74
   6218.82  -21.165  2.74
   6221.56  -21.157  2.74
   6224.30  -21.144  2.74
   6227.04  -21.140  2.74
   6229.78  -21.146  2.74
   6232.52  -21.145  2.74
   6235.26  -21.141  2.74
   6238.00  -21.147  2.74
   6240.74  -21.154  2.74
   6243.48  -21.156  2.74
   6246.22  -21.154  2.74
   6248.96  -21.147  2.74
   6251.70  -21.140  2.74
   6254.44  -21.132  2.74
   6257.18  -21.141  2.74
   6259.92  -21.155  2.74
   6262.66  -21.155  2.74
   6265.40  -21.154  2.74
   6268.14  -21.160  2.74
   6270.88  -21.160  2.74
   6273.62  -21.152  2.74
   6276.36  -21.152  2.74
   6279.10  -21.157  2.74
   6281.84  -21.160  2.74
   6284.58  -21.163  2.74
   6287.32  -21.166  2.74
   6290.06  -21.164  2.74
   6292.80  -21.155  2.74
   6295.54  -21.150  2.74
   6298.28  -21.147  2.74
   6301.02  -21.153  2.74
   6303.76  -21.161  2.74
   6306.50  -21.167  2.74
   6309.24  -21.168  2.74
   6311.98  -21.158  2.74
   6314.72  -21.156  2.74
   6317.46  -21.169  2.74
   6320.20  -21.170  2.74
   6322.94  -21.167  2.74
   6325.68  -21.170  2.74
   6328.42  -21.170  2.74
   6331.16  -21.157  2.74
   6333.90  -21.148  2.74
   6336.64  -21.152  2.74
   6339.38  -21.154  2.74
   6342.12  -21.154  2.74
   6344.86  -21.159  2.74
   6347.60  -21.167  2.74
   6350.34  -21.174  2.74
   6353.08  -21.178  2.74
   6355.82  -21.172  2.74
   6358.56  -21.171  2.74
   6361.30  -21.177  2.74
   6364.04  -21.181  2.74
   6366.78  -21.183  2.74
   6369.52  -21.173  2.74
   6372.26  -21.163  2.74
   6375.00  -21.171  2.74
   6377.74  -21.176  2.74
   6380.48  -21.168  2.74
   6383.22  -21.166  2.74
   6385.96  -21.172  2.74
   6388.70  -21.173  2.74
   6391.44  -21.172  2.74
   6394.18  -21.173  2.74
   6396.92  -21.173  2.74
   6399.66  -21.174  2.74
   6402.40  -21.171  2.74
   6405.14  -21.160  2.74
   6407.88  -21.159  2.74
   6410.62  -21.166  2.74
   6413.36  -21.169  2.74
   6416.10  -21.170  2.74
   6418.84  -21.166  2.74
   6421.58  -21.165  2.74
   6424.32  -21.178  2.74
   6427.06  -21.179  2.74
   6429.80  -21.166  2.74
   6432.54  -21.164  2.74
   6435.28  -21.166  2.74
   6438.02  -21.172  2.74
   6440.76  -21.178  2.74
   6443.50  -21.183  2.74
   6446.24  -21.184  2.74
   6448.98  -21.180  2.74
   6451.72  -21.179  2.74
   6454.46  -21.181  2.74
   6457.20  -21.186  2.74
   6459.94  -21.191  2.74
   6462.68  -21.181  2.74
   6465.42  -21.176  2.74
   6468.16  -21.186  2.74
   6470.90  -21.194  2.74
   6473.64  -21.201  2.74
   6476.38  -21.196  2.74
   6479.12  -21.183  2.74
   6481.86  -21.183  2.74
   6484.60  -21.186  2.74
   6487.34  -21.186  2.74
   6490.08  -21.182  2.74
   6492.82  -21.170  2.74
   6495.56  -21.172  2.74
   6498.30  -21.187  2.74
   6501.04  -21.190  2.74
   6503.78  -21.189  2.74
   6506.52  -21.195  2.74
   6509.26  -21.200  2.74
   6512.00  -21.205  2.74
   6514.74  -21.203  2.74
   6517.48  -21.187  2.74
   6520.22  -21.184  2.74
   6522.96  -21.188  2.74
   6525.70  -21.194  2.74
   6528.44  -21.199  2.74
   6531.18  -21.194  2.74
   6533.92  -21.189  2.74
   6536.66  -21.186  2.74
   6539.40  -21.187  2.74
   6542.14  -21.193  2.74
   6544.88  -21.194  2.74
   6547.62  -21.190  2.74
   6550.36  -21.161  2.74
   6553.10  -21.128  2.74
   6555.84  -21.110  2.74
   6558.58  -21.071  2.74
   6561.32  -20.973  2.74
   6564.06  -20.974  2.74
   6566.80  -21.038  2.74
   6569.54  -21.105  2.74
   6572.28  -21.167  2.74
   6575.02  -21.189  2.74
   6577.76  -21.197  2.74
   6580.50  -21.193  2.74
   6583.24  -21.192  2.74
   6585.98  -21.191  2.74
   6588.72  -21.200  2.74
   6591.46  -21.213  2.74
   6594.20  -21.212  2.74
   6596.94  -21.211  2.74
   6599.68  -21.220  2.74
   6602.42  -21.225  2.74
   6605.16  -21.224  2.74
   6607.90  -21.220  2.74
   6610.64  -21.213  2.74
   6613.38  -21.213  2.74
   6616.12  -21.217  2.74
   6618.86  -21.221  2.74
   6621.60  -21.226  2.74
   6624.34  -21.233  2.74
   6627.08  -21.233  2.74
   6629.82  -21.224  2.74
   6632.56  -21.218  2.74
   6635.30  -21.213  2.74
   6638.04  -21.213  2.74
   6640.78  -21.222  2.74
   6643.52  -21.259  2.74
   6646.26  -21.269  2.74
   6649.00  -21.227  2.74
   6651.74  -21.217  2.74
   6654.48  -21.227  2.74
   6657.22  -21.226  2.74
   6659.96  -21.225  2.74
   6662.70  -21.226  2.74
   6665.44  -21.228  2.74
   6668.18  -21.232  2.74
   6670.92  -21.232  2.74
   6673.66  -21.228  2.74
   6676.40  -21.220  2.74
   6679.14  -21.211  2.74
   6681.88  -21.215  2.74
   6684.62  -21.222  2.74
   6687.36  -21.228  2.74
   6690.10  -21.232  2.74
   6692.84  -21.229  2.74
   6695.58  -21.229  2.74
   6698.32  -21.232  2.74
   6701.06  -21.228  2.74
   6703.80  -21.223  2.74
   6706.54  -21.231  2.74
   6709.28  -21.234  2.74
   6712.02  -21.219  2.74
   6714.76  -21.213  2.74
   6717.50  -21.216  2.74
   6720.24  -21.224  2.74
   6722.98  -21.236  2.74
   6725.72  -21.230  2.74
   6728.46  -21.222  2.74
   6731.20  -21.225  2.74
   6733.94  -21.228  2.74
   6736.68  -21.229  2.74
   6739.42  -21.228  2.74
   6742.16  -21.227  2.74
   6744.90  -21.229  2.74
   6747.64  -21.233  2.74
   6750.38  -21.235  2.74
   6753.12  -21.236  2.74
   6755.86  -21.236  2.74
   6758.60  -21.236  2.74
   6761.34  -21.235  2.74
   6764.08  -21.231  2.74
   6766.82  -21.226  2.74
   6769.56  -21.232  2.74
   6772.30  -21.239  2.74
   6775.04  -21.222  2.74
   6777.78  -21.215  2.74
   6780.52  -21.232  2.74
   6783.26  -21.237  2.74
   6786.00  -21.233  2.74
   6788.74  -21.228  2.74
   6791.48  -21.223  2.74
   6794.22  -21.231  2.74
   6796.96  -21.236  2.74
   6799.70  -21.221  2.74
   6802.44  -21.217  2.74
   6805.18  -21.234  2.74
   6807.92  -21.235  2.74
   6810.66  -21.229  2.74
   6813.40  -21.226  2.74
   6816.14  -21.226  2.74
   6818.88  -21.240  2.74
   6821.62  -21.249  2.74
   6824.36  -21.243  2.74
   6827.10  -21.237  2.74
   6829.84  -21.231  2.74
   6832.58  -21.236  2.74
   6835.32  -21.246  2.74
   6838.06  -21.240  2.74
   6840.80  -21.232  2.74
   6843.54  -21.233  2.74
   6846.28  -21.235  2.74
   6849.02  -21.238  2.74
   6851.76  -21.239  2.74
   6854.50  -21.239  2.74
   6857.24  -21.230  2.74
   6859.98  -21.220  2.74
   6862.72  -21.228  2.74
   6865.46  -21.235  2.74
   6868.20  -21.230  2.74
   6870.94  -21.231  2.74
   6873.68  -21.239  2.74
   6876.42  -21.249  2.74
   6879.16  -21.260  2.74
   6881.90  -21.261  2.74
   6884.64  -21.257  2.74
   6887.38  -21.246  2.74
   6890.12  -21.235  2.74
   6892.86  -21.223  2.74
   6895.60  -21.225  2.74
   6898.34  -21.239  2.74
   6901.08  -21.244  2.74
   6903.82  -21.248  2.74
   6906.56  -21.257  2.74
   6909.30  -21.264  2.74
   6912.04  -21.262  2.74
   6914.78  -21.259  2.74
   6917.52  -21.253  2.74
   6920.26  -21.250  2.74
   6923.00  -21.248  2.74
   6925.74  -21.247  2.74
   6928.48  -21.247  2.74
   6931.22  -21.249  2.74
   6933.96  -21.251  2.74
   6936.70  -21.251  2.74
   6939.44  -21.248  2.74
   6942.18  -21.243  2.74
   6944.92  -21.243  2.74
   6947.66  -21.246  2.74
   6950.40  -21.252  2.74
   6953.14  -21.254  2.74
   6955.88  -21.239  2.74
   6958.62  -21.236  2.74
   6961.36  -21.249  2.74
   6964.10  -21.254  2.74
   6966.84  -21.257  2.74
   6969.58  -21.259  2.74
   6972.32  -21.260  2.74
   6975.06  -21.257  2.74
   6977.80  -21.256  2.74
   6980.54  -21.254  2.74
   6983.28  -21.259  2.74
   6986.02  -21.271  2.74
   6988.76  -21.268  2.74
   6991.50  -21.259  2.74
   6994.24  -21.255  2.74
   6996.98  -21.253  2.74
   6999.72  -21.252  2.74
   7002.46  -21.254  2.74
   7005.20  -21.259  2.74
   7007.94  -21.263  2.74
   7010.68  -21.267  2.74
   7013.42  -21.260  2.74
   7016.16  -21.252  2.74
   7018.90  -21.262  2.74
   7021.64  -21.267  2.74
   7024.38  -21.258  2.74
   7027.12  -21.251  2.74
   7029.86  -21.241  2.74
   7032.60  -21.263  2.74
   7035.34  -21.297  2.74
   7038.08  -21.304  2.74
   7040.82  -21.300  2.74
   7043.56  -21.284  2.74
   7046.30  -21.272  2.74
   7049.04  -21.265  2.74
   7051.78  -21.265  2.74
   7054.52  -21.269  2.74
   7057.26  -21.266  2.74
   7060.00  -21.262  2.74
   7062.74  -21.264  2.74
   7065.48  -21.266  2.74
   7068.22  -21.262  2.74
   7070.96  -21.262  2.74
   7073.70  -21.265  2.74
   7076.44  -21.262  2.74
   7079.18  -21.255  2.74
   7081.92  -21.258  2.74
   7084.66  -21.263  2.74
   7087.40  -21.268  2.74
   7090.14  -21.268  2.74
   7092.88  -21.257  2.74
   7095.62  -21.255  2.74
   7098.36  -21.260  2.74
   7101.10  -21.262  2.74
   7103.84  -21.266  2.74
   7106.58  -21.273  2.74
   7109.32  -21.275  2.74
   7112.06  -21.269  2.74
   7114.80  -21.262  2.74
   7117.54  -21.251  2.74
   7120.28  -21.252  2.74
   7123.02  -21.258  2.74
   7125.76  -21.257  2.74
   7128.50  -21.254  2.74
   7131.24  -21.254  2.74
   7133.98  -21.257  2.74
   7136.72  -21.267  2.74
   7139.46  -21.269  2.74
   7142.20  -21.265  2.74
   7144.94  -21.263  2.74
   7147.68  -21.260  2.74
   7150.42  -21.258  2.74
   7153.16  -21.257  2.74
   7155.90  -21.256  2.74
   7158.64  -21.257  2.74
   7161.38  -21.257  2.74
   7164.12  -21.261  2.74
   7166.86  -21.266  2.74
   7169.60  -21.269  2.74
   7172.34  -21.270  2.74
   7175.08  -21.267  2.74
   7177.82  -21.265  2.74
   7180.56  -21.268  2.74
   7183.30  -21.266  2.74
   7186.04  -21.259  2.74
   7188.78  -21.284  2.74
   7191.52  -21.314  2.74
   7194.26  -21.289  2.74
   7197.00  -21.259  2.74
   7199.74  -21.250  2.74
   7202.48  -21.251  2.74
   7205.22  -21.266  2.74
   7207.96  -21.266  2.74
   7210.70  -21.259  2.74
   7213.44  -21.264  2.74
   7216.18  -21.275  2.74
   7218.92  -21.294  2.74
   7221.66  -21.300  2.74
   7224.40  -21.274  2.74
   7227.14  -21.268  2.74
   7229.88  -21.283  2.74
   7232.62  -21.278  2.74
   7235.36  -21.266  2.74
   7238.10  -21.270  2.74
   7240.84  -21.277  2.74
   7243.58  -21.284  2.74
   7246.32  -21.286  2.74
   7249.06  -21.281  2.74
   7251.80  -21.278  2.74
   7254.54  -21.276  2.74
   7257.28  -21.277  2.74
   7260.02  -21.279  2.74
   7262.76  -21.279  2.74
   7265.50  -21.278  2.74
   7268.24  -21.280  2.74
   7270.98  -21.279  2.74
   7273.72  -21.276  2.74
   7276.46  -21.275  2.74
   7279.20  -21.275  2.74
   7281.94  -21.276  2.74
   7284.68  -21.280  2.74
   7287.42  -21.288  2.74
   7290.16  -21.291  2.74
   7292.90  -21.282  2.74
   7295.64  -21.280  2.74
   7298.38  -21.282  2.74
   7301.12  -21.280  2.74
   7303.86  -21.276  2.74
   7306.60  -21.279  2.74
   7309.34  -21.283  2.74
   7312.08  -21.288  2.74
   7314.82  -21.288  2.74
   7317.56  -21.282  2.74
   7320.30  -21.281  2.74
   7323.04  -21.283  2.74
   7325.78  -21.279  2.74
   7328.52  -21.276  2.74
   7331.26  -21.278  2.74
   7334.00  -21.281  2.74
   7336.74  -21.285  2.74
   7339.48  -21.287  2.74
   7342.22  -21.289  2.74
   7344.96  -21.283  2.74
   7347.70  -21.277  2.74
   7350.44  -21.281  2.74
   7353.18  -21.288  2.74
   7355.92  -21.297  2.74
   7358.66  -21.297  2.74
   7361.40  -21.284  2.74
   7364.14  -21.280  2.74
   7366.88  -21.280  2.74
   7369.62  -21.285  2.74
   7372.36  -21.292  2.74
   7375.10  -21.300  2.74
   7377.84  -21.301  2.74
   7380.58  -21.287  2.74
   7383.32  -21.286  2.74
   7386.06  -21.298  2.74
   7388.80  -21.287  2.74
   7391.54  -21.271  2.74
   7394.28  -21.274  2.74
   7397.02  -21.280  2.74
   7399.76  -21.285  2.74
   7402.50  -21.287  2.74
   7405.24  -21.280  2.74
   7407.98  -21.283  2.74
   7410.72  -21.290  2.74
   7413.46  -21.284  2.74
   7416.20  -21.277  2.74
   7418.94  -21.280  2.74
   7421.68  -21.284  2.74
   7424.42  -21.288  2.74
   7427.16  -21.290  2.74
   7429.90  -21.291  2.74
   7432.64  -21.296  2.74
   7435.38  -21.299  2.74
   7438.12  -21.284  2.74
   7440.86  -21.274  2.74
   7443.60  -21.292  2.74
   7446.34  -21.299  2.74
   7449.08  -21.287  2.74
   7451.82  -21.285  2.74
   7454.56  -21.288  2.74
   7457.30  -21.297  2.74
   7460.04  -21.304  2.74
   7462.78  -21.294  2.74
   7465.52  -21.286  2.74
   7468.26  -21.289  2.74
   7471.00  -21.288  2.74
   7473.74  -21.281  2.74
   7476.48  -21.286  2.74
   7479.22  -21.296  2.74
   7481.96  -21.291  2.74
   7484.70  -21.284  2.74
   7487.44  -21.282  2.74
   7490.18  -21.282  2.74
   7492.92  -21.285  2.74
   7495.66  -21.286  2.74
   7498.40  -21.286  2.74
   7501.14  -21.292  2.74
   7503.88  -21.297  2.74
   7506.62  -21.293  2.74
   7509.36  -21.288  2.74
   7512.10  -21.286  2.74
   7514.84  -21.287  2.74
   7517.58  -21.290  2.74
   7520.32  -21.294  2.74
   7523.06  -21.297  2.74
   7525.80  -21.297  2.74
   7528.54  -21.294  2.74
   7531.28  -21.288  2.74
   7534.02  -21.288  2.74
   7536.76  -21.303  2.74
   7539.50  -21.303  2.74
   7542.24  -21.293  2.74
   7544.98  -21.287  2.74
   7547.72  -21.285  2.74
   7550.46  -21.289  2.74
   7553.20  -21.287  2.74
   7555.94  -21.261  2.74
   7558.68  -21.258  2.74
   7561.42  -21.287  2.74
   7564.16  -21.293  2.74
   7566.90  -21.291  2.74
   7569.64  -21.301  2.74
   7572.38  -21.308  2.74
   7575.12  -21.304  2.74
   7577.86  -21.298  2.74
   7580.60  -21.293  2.74
   7583.34  -21.291  2.74
   7586.08  -21.293  2.74
   7588.82  -21.300  2.74
   7591.56  -21.306  2.74
   7594.30  -21.291  2.74
   7597.04  -21.280  2.74
   7599.78  -21.291  2.74
   7602.52  -21.295  2.74
   7605.26  -21.291  2.74
   7608.00  -21.291  2.74
   7610.74  -21.292  2.74
   7613.48  -21.295  2.74
   7616.22  -21.298  2.74
   7618.96  -21.296  2.74
   7621.70  -21.294  2.74
   7624.44  -21.293  2.74
   7627.18  -21.296  2.74
   7629.92  -21.304  2.74
   7632.66  -21.305  2.74
   7635.40  -21.303  2.74
   7638.14  -21.305  2.74
   7640.88  -21.305  2.74
   7643.62  -21.294  2.74
   7646.36  -21.289  2.74
   7649.10  -21.292  2.74
   7651.84  -21.290  2.74
   7654.58  -21.285  2.74
   7657.32  -21.287  2.74
   7660.06  -21.288  2.74
   7662.80  -21.277  2.74
   7665.54  -21.272  2.74
   7668.28  -21.283  2.74
   7671.02  -21.290  2.74
   7673.76  -21.294  2.74
   7676.50  -21.296  2.74
   7679.24  -21.296  2.74
   7681.98  -21.297  2.74
   7684.72  -21.298  2.74
   7687.46  -21.300  2.74
   7690.20  -21.301  2.74
   7692.94  -21.304  2.74
   7695.68  -21.301  2.74
   7698.42  -21.293  2.74
   7701.16  -21.296  2.74
   7703.90  -21.301  2.74
   7706.64  -21.298  2.74
   7709.38  -21.292  2.74
   7712.12  -21.283  2.74
   7714.86  -21.286  2.74
   7717.60  -21.301  2.74
   7720.34  -21.306  2.74
   7723.08  -21.307  2.74
   7725.82  -21.302  2.74
   7728.56  -21.296  2.74
   7731.30  -21.293  2.74
   7734.04  -21.288  2.74
   7736.78  -21.280  2.74
   7739.52  -21.282  2.74
   7742.26  -21.291  2.74
   7745.00  -21.290  2.74
   7747.74  -21.287  2.74
   7750.48  -21.291  2.74
   7753.22  -21.294  2.74
   7755.96  -21.291  2.74
   7758.70  -21.292  2.74
   7761.44  -21.297  2.74
   7764.18  -21.305  2.74
   7766.92  -21.312  2.74
   7769.66  -21.303  2.74
   7772.40  -21.293  2.74
   7775.14  -21.303  2.74
   7777.88  -21.306  2.74
   7780.62  -21.294  2.74
   7783.36  -21.288  2.74
   7786.10  -21.286  2.74
   7788.84  -21.288  2.74
   7791.58  -21.291  2.74
   7794.32  -21.286  2.74
   7797.06  -21.284  2.74
   7799.80  -21.294  2.74
   7802.54  -21.300  2.74
   7805.28  -21.302  2.74
   7808.02  -21.299  2.74
   7810.76  -21.293  2.74
   7813.50  -21.298  2.74
   7816.24  -21.305  2.74
   7818.98  -21.308  2.74
   7821.72  -21.310  2.74
   7824.46  -21.313  2.74
   7827.20  -21.311  2.74
   7829.94  -21.304  2.74
   7832.68  -21.296  2.74
   7835.42  -21.290  2.74
   7838.16  -21.293  2.74
   7840.90  -21.297  2.74
   7843.64  -21.292  2.74
   7846.38  -21.293  2.74
   7849.12  -21.300  2.74
   7851.86  -21.308  2.74
   7854.60  -21.316  2.74
   7857.34  -21.310  2.74
   7860.08  -21.299  2.74
   7862.82  -21.292  2.74
   7865.56  -21.289  2.74
   7868.30  -21.293  2.74
   7871.04  -21.293  2.74
   7873.78  -21.289  2.74
   7876.52  -21.288  2.74
   7879.26  -21.288  2.74
   7882.00  -21.296  2.74
   7884.74  -21.304  2.74
   7887.48  -21.309  2.74
   7890.22  -21.314  2.74
   7892.96  -21.325  2.74
   7895.70  -21.318  2.74
   7898.44  -21.300  2.74
   7901.18  -21.297  2.74
   7903.92  -21.297  2.74
   7906.66  -21.290  2.74
   7909.40  -21.285  2.74
   7912.14  -21.284  2.74
   7914.88  -21.288  2.74
   7917.62  -21.299  2.74
   7920.36  -21.300  2.74
   7923.10  -21.297  2.74
   7925.84  -21.301  2.74
   7928.58  -21.305  2.74
   7931.32  -21.308  2.74
   7934.06  -21.310  2.74
   7936.80  -21.310  2.74
   7939.54  -21.309  2.74
   7942.28  -21.306  2.74
   7945.02  -21.283  2.74
   7947.76  -21.263  2.74
   7950.50  -21.293  2.74
   7953.24  -21.317  2.74
   7955.98  -21.305  2.74
   7958.72  -21.315  2.74
   7961.46  -21.358  2.74
   7964.20  -21.343  2.74
   7966.94  -21.302  2.74
   7969.68  -21.306  2.74
   7972.42  -21.319  2.74
   7975.16  -21.321  2.74
   7977.90  -21.320  2.74
   7980.64  -21.309  2.74
   7983.38  -21.320  2.74
   7986.12  -21.347  2.74
   7988.86  -21.333  2.74
   7991.60  -21.309  2.74
   7994.34  -21.315  2.74
   7997.08  -21.319  2.74
   7999.82  -21.306  2.74
   8002.56  -21.301  2.74
   8005.30  -21.305  2.74
   8008.04  -21.308  2.74
   8010.78  -21.310  2.74
   8013.52  -21.305  2.74
   8016.26  -21.300  2.74
   8019.00  -21.309  2.74
   8021.74  -21.312  2.74
   8024.48  -21.302  2.74
   8027.22  -21.302  2.74
   8029.96  -21.308  2.74
   8032.70  -21.317  2.74
   8035.44  -21.325  2.74
   8038.18  -21.324  2.74
   8040.92  -21.320  2.74
   8043.66  -21.314  2.74
   8046.40  -21.315  2.74
   8049.14  -21.326  2.74
   8051.88  -21.327  2.74
   8054.62  -21.323  2.74
   8057.36  -21.321  2.74
   8060.10  -21.320  2.74
   8062.84  -21.322  2.74
   8065.58  -21.323  2.74
   8068.32  -21.321  2.74
   8071.06  -21.320  2.74
   8073.80  -21.319  2.74
   8076.54  -21.317  2.74
   8079.28  -21.316  2.74
   8082.02  -21.317  2.74
   8084.76  -21.316  2.74
   8087.50  -21.308  2.74
   8090.24  -21.308  2.74
   8092.98  -21.322  2.74
   8095.72  -21.321  2.74
   8098.46  -21.313  2.74
   8101.20  -21.309  2.74
   8103.94  -21.309  2.74
   8106.68  -21.317  2.74
   8109.42  -21.320  2.74
   8112.16  -21.307  2.74
   8114.90  -21.308  2.74
   8117.64  -21.321  2.74
   8120.38  -21.323  2.74
   8123.12  -21.320  2.74
   8125.86  -21.320  2.74
   8128.60  -21.321  2.74
   8131.34  -21.318  2.74
   8134.08  -21.323  2.74
   8136.82  -21.342  2.74
   8139.56  -21.345  2.74
   8142.30  -21.337  2.74
   8145.04  -21.333  2.74
   8147.78  -21.329  2.74
   8150.52  -21.334  2.74
   8153.26  -21.334  2.74
   8156.00  -21.318  2.74
   8158.74  -21.322  2.74
   8161.48  -21.349  2.74
   8164.22  -21.353  2.74
   8166.96  -21.347  2.74
   8169.70  -21.334  2.74
   8172.44  -21.321  2.74
   8175.18  -21.319  2.74
   8177.92  -21.319  2.74
   8180.66  -21.318  2.74
   8183.40  -21.321  2.74
   8186.14  -21.325  2.74
   8188.88  -21.322  2.74
   8191.62  -21.316  2.74
   8194.36  -21.306  2.74
   8197.10  -21.306  2.74
   8199.84  -21.329  2.74
   8202.58  -21.335  2.74
   8205.32  -21.323  2.74
   8208.06  -21.323  2.74
   8210.80  -21.328  2.74
   8213.54  -21.332  2.74
   8216.28  -21.335  2.74
   8219.02  -21.339  2.74
   8221.76  -21.336  2.74
   8224.50  -21.322  2.74
   8227.24  -21.322  2.74
   8229.98  -21.332  2.74
   8232.72  -21.332  2.74
   8235.46  -21.327  2.74
   8238.20  -21.326  2.74
   8240.94  -21.324  2.74
   8243.68  -21.319  2.74
   8246.42  -21.320  2.74
   8249.16  -21.328  2.74
   8251.90  -21.330  2.74
   8254.64  -21.330  2.74
   8257.38  -21.330  2.74
   8260.12  -21.329  2.74
   8262.86  -21.328  2.74
   8265.60  -21.328  2.74
   8268.34  -21.326  2.74
   8271.08  -21.330  2.74
   8273.82  -21.338  2.74
   8276.56  -21.329  2.74
   8279.30  -21.316  2.74
   8282.04  -21.325  2.74
   8284.78  -21.333  2.74
   8287.52  -21.326  2.74
   8290.26  -21.322  2.74
   8293.00  -21.323  2.74
   8295.74  -21.326  2.74
   8298.48  -21.330  2.74
   8301.22  -21.324  2.74
   8303.96  -21.316  2.74
   8306.70  -21.311  2.74
   8309.44  -21.311  2.74
   8312.18  -21.317  2.74
   8314.92  -21.327  2.74
   8317.66  -21.344  2.74
   8320.40  -21.345  2.74
   8323.14  -21.337  2.74
   8325.88  -21.331  2.74
   8328.62  -21.329  2.74
   8331.36  -21.340  2.74
   8334.10  -21.343  2.74
   8336.84  -21.332  2.74
   8339.58  -21.322  2.74
   8342.32  -21.312  2.74
   8345.06  -21.324  2.74
   8347.80  -21.338  2.74
   8350.54  -21.329  2.74
   8353.28  -21.319  2.74
   8356.02  -21.314  2.74
   8358.76  -21.314  2.74
   8361.50  -21.321  2.74
   8364.24  -21.323  2.74
   8366.98  -21.323  2.74
   8369.72  -21.318  2.74
   8372.46  -21.314  2.74
   8375.20  -21.320  2.74
   8377.94  -21.325  2.74
   8380.68  -21.326  2.74
   8383.42  -21.329  2.74
   8386.16  -21.332  2.74
   8388.90  -21.331  2.74
   8391.64  -21.329  2.74
   8394.38  -21.334  2.74
   8397.12  -21.339  2.74
   8399.86  -21.342  2.74
   8402.60  -21.342  2.74
   8405.34  -21.341  2.74
   8408.08  -21.333  2.74
   8410.82  -21.323  2.74
   8413.56  -21.322  2.74
   8416.30  -21.326  2.74
   8419.04  -21.333  2.74
   8421.78  -21.339  2.74
   8424.52  -21.343  2.74
   8427.26  -21.343  2.74
   8430.00  -21.339  2.74
   8432.74  -21.332  2.74
   8435.48  -21.325  2.74
   8438.22  -21.328  2.74
   8440.96  -21.334  2.74
   8443.70  -21.342  2.74
   8446.44  -21.349  2.74
   8449.18  -21.357  2.74
   8451.92  -21.356  2.74
   8454.66  -21.351  2.74
   8457.40  -21.356  2.74
   8460.14  -21.357  2.74
   8462.88  -21.337  2.74
   8465.62  -21.323  2.74
   8468.36  -21.321  2.74
   8471.10  -21.322  2.74
   8473.84  -21.326  2.74
   8476.58  -21.323  2.74
   8479.32  -21.318  2.74
   8482.06  -21.326  2.74
   8484.80  -21.331  2.74
   8487.54  -21.324  2.74
   8490.28  -21.319  2.74
   8493.02  -21.318  2.74
   8495.76  -21.308  2.74
   8498.50  -21.294  2.74
   8501.24  -21.307  2.74
   8503.98  -21.327  2.74
   8506.72  -21.341  2.74
   8509.46  -21.350  2.74
   8512.20  -21.355  2.74
   8514.94  -21.352  2.74
   8517.68  -21.342  2.74
   8520.42  -21.340  2.74
   8523.16  -21.340  2.74
   8525.90  -21.330  2.74
   8528.64  -21.320  2.74
   8531.38  -21.319  2.74
   8534.12  -21.306  2.74
   8536.86  -21.272  2.74
   8539.60  -21.239  2.74
   8542.34  -21.205  2.74
   8545.08  -21.232  2.74
   8547.82  -21.276  2.74
   8550.56  -21.297  2.74
   8553.30  -21.312  2.74
   8556.04  -21.322  2.74
   8558.78  -21.325  2.74
   8561.52  -21.320  2.74
   8564.26  -21.320  2.74
   8567.00  -21.324  2.74
   8569.74  -21.337  2.74
   8572.48  -21.347  2.74
   8575.22  -21.346  2.74
   8577.96  -21.345  2.74
   8580.70  -21.346  2.74
   8583.44  -21.347  2.74
   8586.18  -21.347  2.74
   8588.92  -21.348  2.74
   8591.66  -21.349  2.74
   8594.40  -21.341  2.74
   8597.14  -21.338  2.74
   8599.88  -21.343  2.74
   8602.62  -21.352  2.74
   8605.36  -21.367  2.74
   8608.10  -21.367  2.74
   8610.84  -21.360  2.74
   8613.58  -21.363  2.74
   8616.32  -21.364  2.74
   8619.06  -21.353  2.74
   8621.80  -21.346  2.74
   8624.54  -21.343  2.74
   8627.28  -21.346  2.74
   8630.02  -21.354  2.74
   8632.76  -21.353  2.74
   8635.50  -21.348  2.74
   8638.24  -21.344  2.74
   8640.98  -21.341  2.74
   8643.72  -21.346  2.74
   8646.46  -21.344  2.74
   8649.20  -21.331  2.74
   8651.94  -21.327  2.74
   8654.68  -21.325  2.74
   8657.42  -21.308  2.74
   8660.16  -21.289  2.74
   8662.90  -21.272  2.74
   8665.64  -21.277  2.74
   8668.38  -21.324  2.74
   8671.12  -21.343  2.74
   8673.86  -21.346  2.74
   8676.60  -21.351  2.74
   8679.34  -21.353  2.74
   8682.08  -21.357  2.74
   8684.82  -21.357  2.74
   8687.56  -21.348  2.74
   8690.30  -21.340  2.74
   8693.04  -21.329  2.74
   8695.78  -21.334  2.74
   8698.52  -21.349  2.74
   8701.26  -21.348  2.74
   8704.00  -21.345  2.74
   8706.74  -21.350  2.74
   8709.48  -21.355  2.74
   8712.22  -21.364  2.74
   8714.96  -21.359  2.74
   8717.70  -21.343  2.74
   8720.44  -21.335  2.74
   8723.18  -21.334  2.74
   8725.92  -21.364  2.74
   8728.66  -21.385  2.74
   8731.40  -21.363  2.74
   8734.14  -21.356  2.74
   8736.88  -21.374  2.74
   8739.62  -21.374  2.74
   8742.36  -21.366  2.74
   8745.10  -21.361  2.74
   8747.84  -21.352  2.74
   8750.58  -21.333  2.74
   8753.32  -21.318  2.74
   8756.06  -21.315  2.74
   8758.80  -21.321  2.74
   8761.54  -21.339  2.74
   8764.28  -21.354  2.74
   8767.02  -21.367  2.74
   8769.76  -21.366  2.74
   8772.50  -21.359  2.74
   8775.24  -21.341  2.74
   8777.98  -21.335  2.74
   8780.72  -21.350  2.74
   8783.46  -21.348  2.74
   8786.20  -21.338  2.74
   8788.94  -21.361  2.74
   8791.68  -21.390  2.74
   8794.42  -21.407  2.74
   8797.16  -21.404  2.74
   8799.90  -21.364  2.74
   8802.64  -21.345  2.74
   8805.38  -21.346  2.74
   8808.12  -21.339  2.74
   8810.86  -21.333  2.74
   8813.60  -21.344  2.74
   8816.34  -21.353  2.74
   8819.08  -21.342  2.74
   8821.82  -21.342  2.74
   8824.56  -21.364  2.74
   8827.30  -21.364  2.74
   8830.04  -21.350  2.74
   8832.78  -21.357  2.74
   8835.52  -21.365  2.74
   8838.26  -21.350  2.74
   8841.00  -21.336  2.74
   8843.74  -21.336  2.74
   8846.48  -21.339  2.74
   8849.22  -21.347  2.74
   8851.96  -21.347  2.74
   8854.70  -21.345  2.74
   8857.44  -21.348  2.74
   8860.18  -21.350  2.74
   8862.92  -21.345  2.74
   8865.66  -21.344  2.74
   8868.40  -21.352  2.74
   8871.14  -21.358  2.74
   8873.88  -21.366  2.74
   8876.62  -21.350  2.74
   8879.36  -21.329  2.74
   8882.10  -21.338  2.74
   8884.84  -21.349  2.74
   8887.58  -21.346  2.74
   8890.32  -21.346  2.74
   8893.06  -21.348  2.74
   8895.80  -21.341  2.74
   8898.54  -21.331  2.74
   8901.28  -21.346  2.74
   8904.02  -21.365  2.74
   8906.76  -21.366  2.74
   8909.50  -21.367  2.74
   8912.24  -21.374  2.74
   8914.98  -21.376  2.74
   8917.72  -21.373  2.74
   8920.46  -21.372  2.74
   8923.20  -21.369  2.74
   8925.94  -21.353  2.74
   8928.68  -21.340  2.74
   8931.42  -21.344  2.74
   8934.16  -21.338  2.74
   8936.90  -21.309  2.74
   8939.64  -21.317  2.74
   8942.38  -21.346  2.74
   8945.12  -21.355  2.74
   8947.86  -21.359  2.74
   8950.60  -21.361  2.74
   8953.34  -21.365  2.74
   8956.08  -21.376  2.74
   8958.82  -21.380  2.74
   8961.56  -21.380  2.74
   8964.30  -21.372  2.74
   8967.04  -21.358  2.74
   8969.78  -21.348  2.74
   8972.52  -21.342  2.74
   8975.26  -21.343  2.74
   8978.00  -21.345  2.74
   8980.74  -21.342  2.74
   8983.48  -21.361  2.74
   8986.22  -21.394  2.74
   8988.96  -21.392  2.74
   8991.70  -21.380  2.74
   8994.44  -21.373  2.74
   8997.18  -21.367  2.74
   8999.92  -21.367  2.74
   9002.66  -21.356  2.74
   9005.40  -21.333  2.74
   9008.14  -21.332  2.74
   9010.88  -21.341  2.74
   9013.62  -21.328  2.74
   9016.36  -21.319  2.74
   9019.10  -21.335  2.74
   9021.84  -21.347  2.74
   9024.58  -21.350  2.74
   9027.32  -21.357  2.74
   9030.06  -21.365  2.74
   9032.80  -21.362  2.74
   9035.54  -21.356  2.74
   9038.28  -21.352  2.74
   9041.02  -21.355  2.74
   9043.76  -21.368  2.74
   9046.50  -21.380  2.74
   9049.24  -21.394  2.74
   9051.98  -21.377  2.74
   9054.72  -21.346  2.74
   9057.46  -21.354  2.74
   9060.20  -21.367  2.74
   9062.94  -21.357  2.74
   9065.68  -21.355  2.74
   9068.42  -21.374  2.74
   9071.16  -21.376  2.74
   9073.90  -21.365  2.74
   9076.64  -21.362  2.74
   9079.38  -21.363  2.74
   9082.12  -21.373  2.74
   9084.86  -21.374  2.74
   9087.60  -21.346  2.74
   9090.34  -21.334  2.74
   9093.08  -21.339  2.74
   9095.82  -21.343  2.74
   9098.56  -21.350  2.74
   9101.30  -21.368  2.74
   9104.04  -21.382  2.74
   9106.78  -21.371  2.74
   9109.52  -21.367  2.74
   9112.26  -21.381  2.74
   9115.00  -21.386  2.74
   9117.74  -21.384  2.74
   9120.48  -21.397  2.74
   9123.22  -21.411  2.74
   9125.96  -21.390  2.74
   9128.70  -21.371  2.74
   9131.44  -21.378  2.74
   9134.18  -21.377  2.74
   9136.92  -21.362  2.74
   9139.66  -21.352  2.74
   9142.40  -21.345  2.74
   9145.14  -21.352  2.74
   9147.88  -21.361  2.74
   9150.62  -21.354  2.74
   9153.36  -21.353  2.74
   9156.10  -21.362  2.74
   9158.84  -21.371  2.74
   9161.58  -21.382  2.74
   9164.32  -21.377  2.74
   9167.06  -21.366  2.74
   9169.80  -21.370  2.74
   9172.54  -21.377  2.74
   9175.28  -21.378  2.74
   9178.02  -21.378  2.74
   9180.76  -21.377  2.74
   9183.50  -21.376  2.74
   9186.24  -21.376  2.74
   9188.98  -21.392  2.74
   9191.72  -21.405  2.74
   9194.46  -21.393  2.74
   9197.20  -21.378  2.74
   9199.94  -21.362  2.74
   9202.68  -21.352  2.74
   9205.42  -21.349  2.74
   9208.16  -21.342  2.74
   9210.90  -21.334  2.74
   9213.64  -21.330  2.74
   9216.38  -21.329  2.74
   9219.12  -21.335  2.74
   9221.86  -21.339  2.74
   9224.60  -21.340  2.74
   9227.34  -21.336  2.74
   9230.08  -21.328  2.74
   9232.82  -21.350  2.74
   9235.56  -21.376  2.74
   9238.30  -21.370  2.74
   9241.04  -21.367  2.74
   9243.78  -21.381  2.74
   9246.52  -21.381  2.74
   9249.26  -21.365  2.74
   9252.00  -21.368  2.74
   9254.74  -21.379  2.74
   9257.48  -21.379  2.74
   9260.22  -21.376  2.74
   9262.96  -21.370  2.74
   9265.70  -21.368  2.74
   9268.44  -21.379  2.74
   9271.18  -21.373  2.74
   9273.92  -21.357  2.74
   9276.66  -21.351  2.74
   9279.40  -21.352  2.74
   9282.14  -21.366  2.74
   9284.88  -21.373  2.74
   9287.62  -21.358  2.74
   9290.36  -21.345  2.74
   9293.10  -21.333  2.74
   9295.84  -21.340  2.74
   9298.58  -21.357  2.74
   9301.32  -21.354  2.74
   9304.06  -21.349  2.74
   9306.80  -21.350  2.74
   9309.54  -21.354  2.74
   9312.28  -21.362  2.74
   9315.02  -21.368  2.74
   9317.76  -21.373  2.74
   9320.50  -21.367  2.74
   9323.24  -21.360  2.74
   9325.98  -21.377  2.74
   9328.72  -21.395  2.74
   9331.46  -21.408  2.74
   9334.20  -21.406  2.74
   9336.94  -21.385  2.74
   9339.68  -21.368  2.74
   9342.42  -21.352  2.74
   9345.16  -21.362  2.74
   9347.90  -21.375  2.74
   9350.64  -21.371  2.74
   9353.38  -21.366  2.74
   9356.12  -21.358  2.74
   9358.86  -21.361  2.74
   9361.60  -21.373  2.74
   9364.34  -21.366  2.74
   9367.08  -21.352  2.74
   9369.82  -21.349  2.74
   9372.56  -21.347  2.74
   9375.30  -21.337  2.74
   9378.04  -21.336  2.74
   9380.78  -21.346  2.74
   9383.52  -21.349  2.74
   9386.26  -21.349  2.74
   9389.00  -21.348  2.74
   9391.74  -21.350  2.74
   9394.48  -21.365  2.74
   9397.22  -21.370  2.74
   9399.96  -21.345  2.74
   9402.70  -21.344  2.74
   9405.44  -21.366  2.74
   9408.18  -21.367  2.74
   9410.92  -21.362  2.74
   9413.66  -21.370  2.74
   9416.40  -21.375  2.74
   9419.14  -21.360  2.74
   9421.88  -21.354  2.74
   9424.62  -21.363  2.74
   9427.36  -21.363  2.74
   9430.10  -21.358  2.74
   9432.84  -21.353  2.74
   9435.58  -21.346  2.74
   9438.32  -21.338  2.74
   9441.06  -21.335  2.74
   9443.80  -21.344  2.74
   9446.54  -21.351  2.74
   9449.28  -21.355  2.74
   9452.02  -21.353  2.74
   9454.76  -21.348  2.74
   9457.50  -21.353  2.74
   9460.24  -21.357  2.74
   9462.98  -21.351  2.74
   9465.72  -21.347  2.74
   9468.46  -21.344  2.74
   9471.20  -21.347  2.74
   9473.94  -21.354  2.74
   9476.68  -21.357  2.74
   9479.42  -21.358  2.74
   9482.16  -21.353  2.74
   9484.90  -21.351  2.74
   9487.64  -21.364  2.74
   9490.38  -21.358  2.74
   9493.12  -21.329  2.74
   9495.86  -21.334  2.74
   9498.60  -21.354  2.74
   9501.34  -21.348  2.74
   9504.08  -21.340  2.74
   9506.82  -21.346  2.74
   9509.56  -21.351  2.74
   9512.30  -21.347  2.74
   9515.04  -21.356  2.74
   9517.78  -21.374  2.74
   9520.52  -21.379  2.74
   9523.26  -21.375  2.74
   9526.00  -21.353  2.74
   9528.74  -21.341  2.74
   9531.48  -21.364  2.74
   9534.22  -21.370  2.74
   9536.96  -21.356  2.74
   9539.70  -21.337  2.74
   9542.44  -21.311  2.74
   9545.18  -21.301  2.74
   9547.92  -21.295  2.74
   9550.66  -21.288  2.74
   9553.40  -21.292  2.74
   9556.14  -21.315  2.74
   9558.88  -21.332  2.74
   9561.62  -21.345  2.74
   9564.36  -21.355  2.74
   9567.10  -21.358  2.74
   9569.84  -21.340  2.74
   9572.58  -21.327  2.74
   9575.32  -21.342  2.74
   9578.06  -21.349  2.74
   9580.80  -21.346  2.74
   9583.54  -21.345  2.74
   9586.28  -21.344  2.74
   9589.02  -21.340  2.74
   9591.76  -21.341  2.74
   9594.50  -21.366  2.74
   9597.24  -21.375  2.74
   9599.98  -21.349  2.74
   9602.72  -21.343  2.74
   9605.46  -21.353  2.74
   9608.20  -21.364  2.74
   9610.94  -21.378  2.74
   9613.68  -21.402  2.74
   9616.42  -21.409  2.74
   9619.16  -21.372  2.74
   9621.90  -21.351  2.74
   9624.64  -21.356  2.74
   9627.38  -21.354  2.74
   9630.12  -21.351  2.74
   9632.86  -21.350  2.74
   9635.60  -21.348  2.74
   9638.34  -21.333  2.74
   9641.08  -21.325  2.74
   9643.82  -21.332  2.74
   9646.56  -21.337  2.74
   9649.30  -21.341  2.74
   9652.04  -21.337  2.74
   9654.78  -21.330  2.74
   9657.52  -21.337  2.74
   9660.26  -21.346  2.74
   9663.00  -21.352  2.74
   9665.74  -21.353  2.74
   9668.48  -21.342  2.74
   9671.22  -21.340  2.74
   9673.96  -21.342  2.74
   9676.70  -21.335  2.74
   9679.44  -21.330  2.74
   9682.18  -21.349  2.74
   9684.92  -21.364  2.74
   9687.66  -21.366  2.74
   9690.40  -21.364  2.74
   9693.14  -21.356  2.74
   9695.88  -21.375  2.74
   9698.62  -21.405  2.74
   9701.36  -21.406  2.74
   9704.10  -21.395  2.74
   9706.84  -21.366  2.74
   9709.58  -21.349  2.74
   9712.32  -21.355  2.74
   9715.06  -21.353  2.74
   9717.80  -21.348  2.74
   9720.54  -21.348  2.74
   9723.28  -21.348  2.74
   9726.02  -21.340  2.74
   9728.76  -21.338  2.74
   9731.50  -21.350  2.74
   9734.24  -21.352  2.74
   9736.98  -21.339  2.74
   9739.72  -21.351  2.74
   9742.46  -21.370  2.74
   9745.20  -21.359  2.74
   9747.94  -21.342  2.74
   9750.68  -21.340  2.74
   9753.42  -21.335  2.74
   9756.16  -21.318  2.74
   9758.90  -21.326  2.74
   9761.64  -21.354  2.74
   9764.38  -21.346  2.74
   9767.12  -21.330  2.74
   9769.86  -21.345  2.74
   9772.60  -21.359  2.74
   9775.34  -21.355  2.74
   9778.08  -21.355  2.74
   9780.82  -21.362  2.74
   9783.56  -21.366  2.74
   9786.30  -21.370  2.74
   9789.04  -21.389  2.74
   9791.78  -21.407  2.74
   9794.52  -21.402  2.74
   9797.26  -21.393  2.74
   9800.00  -21.380  2.74
   9802.74  -21.374  2.74
   9805.48  -21.374  2.74
   9808.22  -21.374  2.74
   9810.96  -21.374  2.74
   9813.70  -21.365  2.74
   9816.44  -21.354  2.74
   9819.18  -21.339  2.74
   9821.92  -21.340  2.74
   9824.66  -21.364  2.74
   9827.40  -21.364  2.74
   9830.14  -21.352  2.74
   9832.88  -21.363  2.74
   9835.62  -21.376  2.74
   9838.36  -21.369  2.74
   9841.10  -21.360  2.74
   9843.84  -21.350  2.74
   9846.58  -21.356  2.74
   9849.32  -21.379  2.74
   9852.06  -21.370  2.74
   9854.80  -21.352  2.74
   9857.54  -21.361  2.74
   9860.28  -21.372  2.74
   9863.02  -21.378  2.74
   9865.76  -21.379  2.74
   9868.50  -21.375  2.74
   9871.24  -21.371  2.74
   9873.98  -21.366  2.74
   9876.72  -21.370  2.74
   9879.46  -21.372  2.74
   9882.20  -21.356  2.74
   9884.94  -21.342  2.74
   9887.68  -21.338  2.74
   9890.42  -21.340  2.74
   9893.16  -21.351  2.74
   9895.90  -21.362  2.74
   9898.64  -21.371  2.74
   9901.38  -21.352  2.74
   9904.12  -21.335  2.74
   9906.86  -21.344  2.74
   9909.60  -21.346  2.74
   9912.34  -21.330  2.74
   9915.08  -21.337  2.74
   9917.82  -21.359  2.74
   9920.56  -21.348  2.74
   9923.30  -21.335  2.74
   9926.04  -21.372  2.74
   9928.78  -21.397  2.74
   9931.52  -21.378  2.74
   9934.26  -21.367  2.74
   9937.00  -21.361  2.74
   9939.74  -21.364  2.74
   9942.48  -21.372  2.74
   9945.22  -21.372  2.74
   9947.96  -21.374  2.74
   9950.70  -21.392  2.74
   9953.44  -21.391  2.74
   9956.18  -21.351  2.74
   9958.92  -21.333  2.74
   9961.66  -21.328  2.74
   9964.40  -21.348  2.74
   9967.14  -21.374  2.74
   9969.88  -21.367  2.74
   9972.62  -21.361  2.74
   9975.36  -21.375  2.74
   9978.10  -21.374  2.74
   9980.84  -21.354  2.74
   9983.58  -21.345  2.74
   9986.32  -21.342  2.74
   9989.06  -21.353  2.74
   9991.80  -21.367  2.74
   9994.54  -21.372  2.74
   9997.28  -21.375  2.74
  10000.02  -21.376  2.74
  10002.76  -21.381  2.74
  10005.50  -21.388  2.74
  10008.24  -21.373  2.74
  10010.98  -21.348  2.74
  10013.72  -21.330  2.74
  10016.46  -21.316  2.74
  10019.20  -21.304  2.74
  10021.94  -21.297  2.74
  10024.68  -21.291  2.74
  10027.42  -21.296  2.74
  10030.16  -21.308  2.74
  10032.90  -21.310  2.74
  10035.64  -21.316  2.74
  10038.38  -21.350  2.74
  10041.12  -21.357  2.74
  10043.86  -21.297  2.74
  10046.60  -21.282  2.74
  10049.34  -21.306  2.74
  10052.08  -21.316  2.74
  10054.82  -21.322  2.74
  10057.56  -21.306  2.74
  10060.30  -21.302  2.74
  10063.04  -21.352  2.74
  10065.78  -21.370  2.74
  10068.52  -21.332  2.74
  10071.26  -21.341  2.74
  10074.00  -21.372  2.74
  10076.74  -21.383  2.74
  10079.48  -21.384  2.74
  10082.22  -21.363  2.74
  10084.96  -21.346  2.74
  10087.70  -21.346  2.74
  10090.44  -21.346  2.74
  10093.18  -21.344  2.74
  10095.92  -21.363  2.74
  10098.66  -21.387  2.74
  10101.40  -21.370  2.74
  10104.14  -21.347  2.74
  10106.88  -21.341  2.74
  10109.62  -21.342  2.74
  10112.36  -21.352  2.74
  10115.10  -21.354  2.74
  10117.84  -21.351  2.74
  10120.58  -21.341  2.74
  10123.32  -21.331  2.74
  10126.06  -21.335  2.74
  10128.80  -21.333  2.74
  10131.54  -21.312  2.74
  10134.28  -21.302  2.74
  10137.02  -21.303  2.74
  10139.76  -21.304  2.74
  10142.50  -21.309  2.74
  10145.24  -21.315  2.74
  10147.98  -21.328  2.74
  10150.72  -21.364  2.74
  10153.46  -21.373  2.74
  10156.20  -21.328  2.74
  10158.94  -21.327  2.74
  10161.68  -21.354  2.74
  10164.42  -21.326  2.74
  10167.16  -21.289  2.74
  10169.90  -21.317  2.74
  10172.64  -21.334  2.74
  10175.38  -21.299  2.74
  10178.12  -21.286  2.74
  10180.86  -21.300  2.74
  10183.60  -21.311  2.74
  10186.34  -21.325  2.74
  10189.08  -21.342  2.74
  10191.82  -21.361  2.74
  10194.56  -21.490  2.74
  10197.30  -21.307  2.74
  10200.04  -19.335  2.74
  10202.78-NaN       2.74
