#L745-46A                                                    
#                                                            
# Bessell Jan 2009                                           
# wavelength  ABmag  band
   3050.00   13.764  4.00
   3054.00   13.761  4.00
   3058.00   13.757  4.00
   3062.00   13.755  4.00
   3066.00   13.752  4.00
   3070.00   13.749  4.00
   3074.00   13.746  4.00
   3078.00   13.743  4.00
   3082.00   13.740  4.00
   3086.00   13.737  4.00
   3090.00   13.734  4.00
   3094.00   13.731  4.00
   3098.00   13.728  4.00
   3102.00   13.725  4.00
   3106.00   13.723  4.00
   3110.00   13.720  4.00
   3114.00   13.717  4.00
   3118.00   13.714  4.00
   3122.00   13.711  4.00
   3126.00   13.708  4.00
   3130.00   13.705  4.00
   3134.00   13.702  4.00
   3138.00   13.700  4.00
   3142.00   13.697  4.00
   3146.00   13.694  4.00
   3150.00   13.691  4.00
   3154.00   13.688  4.00
   3158.00   13.685  4.00
   3162.00   13.683  4.00
   3166.00   13.680  4.00
   3170.00   13.677  4.00
   3174.00   13.674  4.00
   3178.00   13.671  4.00
   3182.00   13.668  4.00
   3186.00   13.666  4.00
   3190.00   13.663  4.00
   3194.00   13.660  4.00
   3198.00   13.657  4.00
   3202.00   13.654  4.00
   3206.00   13.652  4.00
   3210.00   13.649  4.00
   3214.00   13.646  4.00
   3218.00   13.643  4.00
   3222.00   13.640  4.00
   3226.00   13.638  4.00
   3230.00   13.635  4.00
   3234.00   13.632  4.00
   3238.00   13.629  4.00
   3242.00   13.626  4.00
   3246.00   13.624  4.00
   3250.00   13.621  4.00
   3254.00   13.618  4.00
   3258.00   13.615  4.00
   3262.00   13.612  4.00
   3266.00   13.609  4.00
   3270.00   13.607  4.00
   3274.00   13.605  4.00
   3278.00   13.603  4.00
   3282.00   13.601  4.00
   3286.00   13.598  4.00
   3290.00   13.595  4.00
   3294.00   13.591  4.00
   3298.00   13.589  4.00
   3302.00   13.586  4.00
   3306.00   13.583  4.00
   3310.00   13.581  4.00
   3314.00   13.578  4.00
   3318.00   13.574  4.00
   3322.00   13.570  4.00
   3326.00   13.568  4.00
   3330.00   13.566  4.00
   3334.00   13.564  4.00
   3338.00   13.562  4.00
   3342.00   13.559  4.00
   3346.00   13.556  4.00
   3350.00   13.553  4.00
   3354.00   13.550  4.00
   3358.00   13.549  4.00
   3362.00   13.546  4.00
   3366.00   13.544  4.00
   3370.00   13.542  4.00
   3374.00   13.540  4.00
   3378.00   13.537  4.00
   3382.00   13.535  4.00
   3386.00   13.533  4.00
   3390.00   13.531  4.00
   3394.00   13.528  4.00
   3398.00   13.526  4.00
   3402.00   13.524  4.00
   3406.00   13.522  4.00
   3410.00   13.520  4.00
   3414.00   13.517  4.00
   3418.00   13.515  4.00
   3422.00   13.513  4.00
   3426.00   13.511  4.00
   3430.00   13.509  4.00
   3434.00   13.506  4.00
   3438.00   13.504  4.00
   3442.00   13.502  4.00
   3446.00   13.500  4.00
   3450.00   13.498  4.00
   3454.00   13.495  4.00
   3458.00   13.493  4.00
   3462.00   13.491  4.00
   3466.00   13.489  4.00
   3470.00   13.487  4.00
   3474.00   13.485  4.00
   3478.00   13.482  4.00
   3482.00   13.480  4.00
   3486.00   13.478  4.00
   3490.00   13.476  4.00
   3494.00   13.474  4.00
   3498.00   13.472  4.00
   3502.00   13.469  4.00
   3506.00   13.467  4.00
   3510.00   13.465  4.00
   3514.00   13.463  4.00
   3518.00   13.461  4.00
   3522.00   13.458  4.00
   3526.00   13.456  4.00
   3530.00   13.454  4.00
   3534.00   13.452  4.00
   3538.00   13.450  4.00
   3542.00   13.448  4.00
   3546.00   13.446  4.00
   3550.00   13.443  4.00
   3554.00   13.440  4.00
   3558.00   13.438  4.00
   3562.00   13.435  4.00
   3566.00   13.433  4.00
   3570.00   13.430  4.00
   3574.00   13.428  4.00
   3578.00   13.426  4.00
   3582.00   13.424  4.00
   3586.00   13.422  4.00
   3590.00   13.420  4.00
   3594.00   13.418  4.00
   3598.00   13.415  4.00
   3602.00   13.413  4.00
   3606.00   13.410  4.00
   3610.00   13.408  4.00
   3614.00   13.406  4.00
   3618.00   13.404  4.00
   3622.00   13.402  4.00
   3626.00   13.400  4.00
   3630.00   13.399  4.00
   3634.00   13.397  4.00
   3638.00   13.396  4.00
   3642.00   13.394  4.00
   3646.00   13.392  4.00
   3650.00   13.390  4.00
   3654.00   13.389  4.00
   3658.00   13.387  4.00
   3662.00   13.385  4.00
   3666.00   13.383  4.00
   3670.00   13.381  4.00
   3674.00   13.379  4.00
   3678.00   13.378  4.00
   3682.00   13.376  4.00
   3686.00   13.374  4.00
   3690.00   13.371  4.00
   3694.00   13.369  4.00
   3698.00   13.367  4.00
   3702.00   13.366  4.00
   3706.00   13.364  4.00
   3710.00   13.363  4.00
   3714.00   13.361  4.00
   3718.00   13.358  4.00
   3722.00   13.356  4.00
   3726.00   13.353  4.00
   3730.00   13.351  4.00
   3734.00   13.349  4.00
   3738.00   13.346  4.00
   3742.00   13.344  4.00
   3746.00   13.342  4.00
   3750.00   13.339  4.00
   3754.00   13.337  4.00
   3758.00   13.334  4.00
   3762.00   13.332  4.00
   3766.00   13.330  4.00
   3770.00   13.328  4.00
   3774.00   13.326  4.00
   3778.00   13.324  4.00
   3782.00   13.322  4.00
   3786.00   13.320  4.00
   3790.00   13.319  4.00
   3794.00   13.318  4.00
   3798.00   13.316  4.00
   3802.00   13.315  4.00
   3806.00   13.314  4.00
   3810.00   13.313  4.00
   3814.00   13.311  4.00
   3818.00   13.310  4.00
   3822.00   13.309  4.00
   3826.00   13.307  4.00
   3830.00   13.306  4.00
   3834.00   13.304  4.00
   3838.00   13.302  4.00
   3842.00   13.301  4.00
   3846.00   13.299  4.00
   3850.00   13.297  4.00
   3854.00   13.295  4.00
   3858.00   13.293  4.00
   3862.00   13.291  4.00
   3866.00   13.289  4.00
   3870.00   13.287  4.00
   3874.00   13.286  4.00
   3878.00   13.285  4.00
   3882.00   13.285  4.00
   3886.00   13.284  4.00
   3890.00   13.283  4.00
   3894.00   13.282  4.00
   3898.00   13.281  4.00
   3902.00   13.280  4.00
   3906.00   13.279  4.00
   3910.00   13.278  4.00
   3914.00   13.277  4.00
   3918.00   13.281  4.00
   3922.00   13.310  4.00
   3926.00   13.359  4.00
   3930.00   13.498  4.00
   3934.00   13.622  4.00
   3938.00   13.518  4.00
   3942.00   13.379  4.00
   3946.00   13.319  4.00
   3950.00   13.294  4.00
   3954.00   13.297  4.00
   3958.00   13.299  4.00
   3962.00   13.328  4.00
   3966.00   13.415  4.00
   3970.00   13.467  4.00
   3974.00   13.400  4.00
   3978.00   13.323  4.00
   3982.00   13.286  4.00
   3986.00   13.260  4.00
   3990.00   13.239  4.00
   3994.00   13.237  4.00
   3998.00   13.236  4.00
   4002.00   13.236  4.00
   4006.00   13.236  4.00
   4010.00   13.236  4.00
   4014.00   13.235  4.00
   4018.00   13.235  4.00
   4022.00   13.234  4.00
   4026.00   13.232  4.00
   4030.00   13.230  4.00
   4034.00   13.228  4.00
   4038.00   13.227  4.00
   4042.00   13.227  4.00
   4046.00   13.226  4.00
   4050.00   13.225  4.00
   4054.00   13.223  4.00
   4058.00   13.223  4.00
   4062.00   13.222  4.00
   4066.00   13.220  4.00
   4070.00   13.219  4.00
   4074.00   13.218  4.00
   4078.00   13.216  4.00
   4082.00   13.214  4.00
   4086.00   13.213  4.00
   4090.00   13.211  4.00
   4094.00   13.210  4.00
   4098.00   13.208  4.00
   4102.00   13.206  4.00
   4106.00   13.205  4.00
   4110.00   13.204  4.00
   4114.00   13.203  4.00
   4118.00   13.203  4.00
   4122.00   13.202  4.00
   4126.00   13.201  4.00
   4130.00   13.201  4.00
   4134.00   13.200  4.00
   4138.00   13.199  4.00
   4142.00   13.198  4.00
   4146.00   13.196  4.00
   4150.00   13.194  4.00
   4154.00   13.192  4.00
   4158.00   13.190  4.00
   4162.00   13.189  4.00
   4166.00   13.188  4.00
   4170.00   13.187  4.00
   4174.00   13.185  4.00
   4178.00   13.185  4.00
   4182.00   13.184  4.00
   4186.00   13.184  4.00
   4190.00   13.183  4.00
   4194.00   13.182  4.00
   4198.00   13.181  4.00
   4202.00   13.179  4.00
   4206.00   13.178  4.00
   4210.00   13.178  4.00
   4214.00   13.177  4.00
   4218.00   13.176  4.00
   4222.00   13.176  4.00
   4226.00   13.175  4.00
   4230.00   13.173  4.00
   4234.00   13.173  4.00
   4238.00   13.172  4.00
   4242.00   13.172  4.00
   4246.00   13.171  4.00
   4250.00   13.170  4.00
   4254.00   13.169  4.00
   4258.00   13.167  4.00
   4262.00   13.166  4.00
   4266.00   13.165  4.00
   4270.00   13.165  4.00
   4274.00   13.163  4.00
   4278.00   13.161  4.00
   4282.00   13.159  4.00
   4286.00   13.158  4.00
   4290.00   13.157  4.00
   4294.00   13.156  4.00
   4298.00   13.156  4.00
   4302.00   13.155  4.00
   4306.00   13.154  4.00
   4310.00   13.153  4.00
   4314.00   13.153  4.00
   4318.00   13.153  4.00
   4322.00   13.152  4.00
   4326.00   13.151  4.00
   4330.00   13.150  4.00
   4334.00   13.149  4.00
   4338.00   13.148  4.00
   4342.00   13.147  4.00
   4346.00   13.147  4.00
   4350.00   13.146  4.00
   4354.00   13.145  4.00
   4358.00   13.145  4.00
   4362.00   13.144  4.00
   4366.00   13.143  4.00
   4370.00   13.142  4.00
   4374.00   13.141  4.00
   4378.00   13.140  4.00
   4382.00   13.139  4.00
   4386.00   13.138  4.00
   4390.00   13.136  4.00
   4394.00   13.135  4.00
   4398.00   13.133  4.00
   4402.00   13.132  4.00
   4406.00   13.132  4.00
   4410.00   13.130  4.00
   4414.00   13.130  4.00
   4418.00   13.130  4.00
   4422.00   13.129  4.00
   4426.00   13.130  4.00
   4430.00   13.131  4.00
   4434.00   13.131  4.00
   4438.00   13.131  4.00
   4442.00   13.131  4.00
   4446.00   13.131  4.00
   4450.00   13.132  4.00
   4454.00   13.132  4.00
   4458.00   13.131  4.00
   4462.00   13.131  4.00
   4466.00   13.131  4.00
   4470.00   13.130  4.00
   4474.00   13.129  4.00
   4478.00   13.129  4.00
   4482.00   13.128  4.00
   4486.00   13.126  4.00
   4490.00   13.125  4.00
   4494.00   13.125  4.00
   4498.00   13.125  4.00
   4502.00   13.124  4.00
   4506.00   13.124  4.00
   4510.00   13.124  4.00
   4514.00   13.123  4.00
   4518.00   13.123  4.00
   4522.00   13.123  4.00
   4526.00   13.122  4.00
   4530.00   13.122  4.00
   4534.00   13.121  4.00
   4538.00   13.119  4.00
   4542.00   13.118  4.00
   4546.00   13.118  4.00
   4550.00   13.116  4.00
   4554.00   13.115  4.00
   4558.00   13.114  4.00
   4562.00   13.114  4.00
   4566.00   13.113  4.00
   4570.00   13.112  4.00
   4574.00   13.113  4.00
   4578.00   13.112  4.00
   4582.00   13.111  4.00
   4586.00   13.110  4.00
   4590.00   13.110  4.00
   4594.00   13.110  4.00
   4598.00   13.110  4.00
   4602.00   13.110  4.00
   4606.00   13.110  4.00
   4610.00   13.109  4.00
   4614.00   13.109  4.00
   4618.00   13.109  4.00
   4622.00   13.109  4.00
   4626.00   13.109  4.00
   4630.00   13.108  4.00
   4634.00   13.107  4.00
   4638.00   13.106  4.00
   4642.00   13.105  4.00
   4646.00   13.105  4.00
   4650.00   13.103  4.00
   4654.00   13.103  4.00
   4658.00   13.102  4.00
   4662.00   13.101  4.00
   4666.00   13.099  4.00
   4670.00   13.098  4.00
   4674.00   13.097  4.00
   4678.00   13.096  4.00
   4682.00   13.095  4.00
   4686.00   13.095  4.00
   4690.00   13.094  4.00
   4694.00   13.094  4.00
   4698.00   13.094  4.00
   4702.00   13.094  4.00
   4706.00   13.095  4.00
   4710.00   13.095  4.00
   4714.00   13.096  4.00
   4718.00   13.095  4.00
   4722.00   13.095  4.00
   4726.00   13.094  4.00
   4730.00   13.094  4.00
   4734.00   13.094  4.00
   4738.00   13.094  4.00
   4742.00   13.092  4.00
   4746.00   13.092  4.00
   4750.00   13.091  4.00
   4754.00   13.091  4.00
   4758.00   13.090  4.00
   4762.00   13.090  4.00
   4766.00   13.090  4.00
   4770.00   13.089  4.00
   4774.00   13.088  4.00
   4778.00   13.088  4.00
   4782.00   13.088  4.00
   4786.00   13.088  4.00
   4790.00   13.088  4.00
   4794.00   13.088  4.00
   4798.00   13.088  4.00
   4802.00   13.086  4.00
   4806.00   13.085  4.00
   4810.00   13.084  4.00
   4814.00   13.083  4.00
   4818.00   13.082  4.00
   4822.00   13.081  4.00
   4826.00   13.080  4.00
   4830.00   13.079  4.00
   4834.00   13.079  4.00
   4838.00   13.078  4.00
   4842.00   13.078  4.00
   4846.00   13.078  4.00
   4850.00   13.078  4.00
   4854.00   13.078  4.00
   4858.00   13.077  4.00
   4862.00   13.076  4.00
   4866.00   13.076  4.00
   4870.00   13.076  4.00
   4874.00   13.075  4.00
   4878.00   13.075  4.00
   4882.00   13.075  4.00
   4886.00   13.075  4.00
   4890.00   13.074  4.00
   4894.00   13.074  4.00
   4898.00   13.074  4.00
   4902.00   13.073  4.00
   4906.00   13.073  4.00
   4910.00   13.072  4.00
   4914.00   13.072  4.00
   4918.00   13.071  4.00
   4922.00   13.071  4.00
   4926.00   13.071  4.00
   4930.00   13.071  4.00
   4934.00   13.070  4.00
   4938.00   13.070  4.00
   4942.00   13.069  4.00
   4946.00   13.069  4.00
   4950.00   13.068  4.00
   4954.00   13.068  4.00
   4958.00   13.067  4.00
   4962.00   13.066  4.00
   4966.00   13.066  4.00
   4970.00   13.066  4.00
   4974.00   13.065  4.00
   4978.00   13.065  4.00
   4982.00   13.065  4.00
   4986.00   13.065  4.00
   4990.00   13.064  4.00
   4994.00   13.064  4.00
   4998.00   13.064  4.00
   5002.00   13.063  4.00
   5006.00   13.063  4.00
   5010.00   13.063  4.00
   5014.00   13.062  4.00
   5018.00   13.062  4.00
   5022.00   13.061  4.00
   5026.00   13.061  4.00
   5030.00   13.060  4.00
   5034.00   13.059  4.00
   5038.00   13.058  4.00
   5042.00   13.058  4.00
   5046.00   13.057  4.00
   5050.00   13.057  4.00
   5054.00   13.057  4.00
   5058.00   13.056  4.00
   5062.00   13.056  4.00
   5066.00   13.055  4.00
   5070.00   13.056  4.00
   5074.00   13.055  4.00
   5078.00   13.054  4.00
   5082.00   13.055  4.00
   5086.00   13.054  4.00
   5090.00   13.054  4.00
   5094.00   13.054  4.00
   5098.00   13.054  4.00
   5102.00   13.054  4.00
   5106.00   13.053  4.00
   5110.00   13.053  4.00
   5114.00   13.053  4.00
   5118.00   13.052  4.00
   5122.00   13.051  4.00
   5126.00   13.051  4.00
   5130.00   13.050  4.00
   5134.00   13.049  4.00
   5138.00   13.049  4.00
   5142.00   13.047  4.00
   5146.00   13.046  4.00
   5150.00   13.046  4.00
   5154.00   13.045  4.00
   5158.00   13.044  4.00
   5162.00   13.044  4.00
   5166.00   13.043  4.00
   5170.00   13.043  4.00
   5174.00   13.043  4.00
   5178.00   13.043  4.00
   5182.00   13.043  4.00
   5186.00   13.042  4.00
   5190.00   13.041  4.00
   5194.00   13.041  4.00
   5198.00   13.041  4.00
   5202.00   13.041  4.00
   5206.00   13.041  4.00
   5210.00   13.041  4.00
   5214.00   13.042  4.00
   5218.00   13.042  4.00
   5222.00   13.042  4.00
   5226.00   13.042  4.00
   5230.00   13.042  4.00
   5234.00   13.040  4.00
   5238.00   13.040  4.00
   5242.00   13.039  4.00
   5246.00   13.038  4.00
   5250.00   13.038  4.00
   5254.00   13.037  4.00
   5258.00   13.037  4.00
   5262.00   13.036  4.00
   5266.00   13.036  4.00
   5270.00   13.035  4.00
   5274.00   13.035  4.00
   5278.00   13.034  4.00
   5282.00   13.033  4.00
   5286.00   13.032  4.00
   5290.00   13.031  4.00
   5294.00   13.031  4.00
   5298.00   13.030  4.00
   5302.00   13.030  4.00
   5306.00   13.030  4.00
   5310.00   13.030  4.00
   5314.00   13.031  4.00
   5318.00   13.031  4.00
   5322.00   13.031  4.00
   5326.00   13.032  4.00
   5330.00   13.032  4.00
   5334.00   13.032  4.00
   5338.00   13.032  4.00
   5342.00   13.032  4.00
   5346.00   13.032  4.00
   5350.00   13.032  4.00
   5354.00   13.032  4.00
   5358.00   13.032  4.00
   5362.00   13.032  4.00
   5366.00   13.032  4.00
   5370.00   13.031  4.00
   5374.00   13.031  4.00
   5378.00   13.032  4.00
   5382.00   13.031  4.00
   5386.00   13.031  4.00
   5390.00   13.030  4.00
   5394.00   13.029  4.00
   5398.00   13.029  4.00
   5402.00   13.029  4.00
   5406.00   13.030  4.00
   5410.00   13.029  4.00
   5414.00   13.029  4.00
   5418.00   13.028  4.00
   5422.00   13.028  4.00
   5426.00   13.028  4.00
   5430.00   13.029  4.00
   5434.00   13.029  4.00
   5438.00   13.028  4.00
   5442.00   13.027  4.00
   5446.00   13.027  4.00
   5450.00   13.027  4.00
   5454.00   13.027  4.00
   5458.00   13.026  4.00
   5462.00   13.026  4.00
   5466.00   13.026  4.00
   5470.00   13.026  4.00
   5474.00   13.026  4.00
   5478.00   13.026  4.00
   5482.00   13.026  4.00
   5486.00   13.026  4.00
   5490.00   13.026  4.00
   5494.00   13.027  4.00
   5498.00   13.026  4.00
   5502.00   13.026  4.00
   5506.00   13.026  4.00
   5510.00   13.026  4.00
   5514.00   13.026  4.00
   5518.00   13.026  4.00
   5522.00   13.026  4.00
   5526.00   13.026  4.00
   5530.00   13.026  4.00
   5534.00   13.026  4.00
   5538.00   13.025  4.00
   5542.00   13.025  4.00
   5546.00   13.025  4.00
   5550.00   13.025  4.00
   5554.00   13.025  4.00
   5558.00   13.025  4.00
   5562.00   13.025  4.00
   5566.00   13.026  4.00
   5570.00   13.025  4.00
   5574.00   13.026  4.00
   5578.00   13.025  4.00
   5582.00   13.024  4.00
   5586.00   13.025  4.00
   5590.00   13.025  4.00
   5594.00   13.024  4.00
   5598.00   13.024  4.00
   5602.00   13.024  4.00
   5606.00   13.024  4.00
   5610.00   13.024  4.00
   5614.00   13.023  4.00
   5618.00   13.023  4.00
   5622.00   13.022  4.00
   5626.00   13.021  4.00
   5630.00   13.020  4.00
   5634.00   13.020  4.00
   5638.00   13.020  4.00
   5642.00   13.021  4.00
   5646.00   13.021  4.00
   5650.00   13.020  4.00
   5654.00   13.021  4.00
   5658.00   13.021  4.00
   5662.00   13.022  4.00
   5666.00   13.021  4.00
   5670.00   13.022  4.00
   5674.00   13.021  4.00
   5678.00   13.020  4.00
   5682.00   13.020  4.00
   5686.00   13.021  4.00
   5690.00   13.020  4.00
   5694.00   13.019  4.00
   5698.00   13.019  4.00
   5702.00   13.018  4.00
   5706.00   13.017  4.00
   5710.00   13.017  4.00
   5714.00   13.017  4.00
   5718.00   13.017  4.00
   5722.00   13.017  4.00
   5726.00   13.017  4.00
   5730.00   13.017  4.00
   5734.00   13.017  4.00
   5738.00   13.017  4.00
   5742.00   13.017  4.00
   5746.00   13.016  4.00
   5750.00   13.016  4.00
   5754.00   13.016  4.00
   5758.00   13.017  4.00
   5762.00   13.017  4.00
   5766.00   13.016  4.00
   5770.00   13.017  4.00
   5774.00   13.017  4.00
   5778.00   13.017  4.00
   5782.00   13.017  4.00
   5786.00   13.017  4.00
   5790.00   13.017  4.00
   5794.00   13.016  4.00
   5798.00   13.016  4.00
   5802.00   13.016  4.00
   5806.00   13.016  4.00
   5810.00   13.015  4.00
   5814.00   13.015  4.00
   5818.00   13.016  4.00
   5822.00   13.016  4.00
   5826.00   13.016  4.00
   5830.00   13.016  4.00
   5834.00   13.016  4.00
   5838.00   13.016  4.00
   5842.00   13.016  4.00
   5846.00   13.016  4.00
   5850.00   13.016  4.00
   5854.00   13.015  4.00
   5858.00   13.015  4.00
   5862.00   13.015  4.00
   5866.00   13.014  4.00
   5870.00   13.014  4.00
   5874.00   13.015  4.00
   5878.00   13.016  4.00
   5882.00   13.015  4.00
   5886.00   13.016  4.00
   5890.00   13.016  4.00
   5894.00   13.016  4.00
   5898.00   13.016  4.00
   5902.00   13.017  4.00
   5906.00   13.017  4.00
   5910.00   13.018  4.00
   5914.00   13.018  4.00
   5918.00   13.019  4.00
   5922.00   13.020  4.00
   5926.00   13.019  4.00
   5930.00   13.020  4.00
   5934.00   13.020  4.00
   5938.00   13.020  4.00
   5942.00   13.020  4.00
   5946.00   13.019  4.00
   5950.00   13.019  4.00
   5954.00   13.019  4.00
   5958.00   13.019  4.00
   5962.00   13.018  4.00
   5966.00   13.018  4.00
   5970.00   13.018  4.00
   5974.00   13.018  4.00
   5978.00   13.018  4.00
   5982.00   13.019  4.00
   5986.00   13.019  4.00
   5990.00   13.020  4.00
   5994.00   13.020  4.00
   5998.00   13.020  4.00
   6002.00   13.020  4.00
   6006.00   13.020  4.00
   6010.00   13.020  4.00
   6014.00   13.020  4.00
   6018.00   13.019  4.00
   6022.00   13.019  4.00
   6026.00   13.019  4.00
   6030.00   13.019  4.00
   6034.00   13.019  4.00
   6038.00   13.019  4.00
   6042.00   13.019  4.00
   6046.00   13.019  4.00
   6050.00   13.019  4.00
   6054.00   13.019  4.00
   6058.00   13.019  4.00
   6062.00   13.019  4.00
   6066.00   13.019  4.00
   6070.00   13.019  4.00
   6074.00   13.019  4.00
   6078.00   13.019  4.00
   6082.00   13.020  4.00
   6086.00   13.020  4.00
   6090.00   13.020  4.00
   6094.00   13.020  4.00
   6098.00   13.020  4.00
   6102.00   13.020  4.00
   6106.00   13.022  4.00
   6110.00   13.023  4.00
   6114.00   13.025  4.00
   6118.00   13.026  4.00
   6122.00   13.026  4.00
   6126.00   13.027  4.00
   6130.00   13.027  4.00
   6134.00   13.028  4.00
   6138.00   13.029  4.00
   6142.00   13.029  4.00
   6146.00   13.030  4.00
   6150.00   13.030  4.00
   6154.00   13.031  4.00
   6158.00   13.032  4.00
   6162.00   13.032  4.00
   6166.00   13.033  4.00
   6170.00   13.034  4.00
   6174.00   13.034  4.00
   6178.00   13.035  4.00
   6182.00   13.035  4.00
   6186.00   13.036  4.00
   6190.00   13.037  4.00
   6194.00   13.037  4.00
   6198.00   13.038  4.00
   6202.00   13.039  4.00
   6206.00   13.039  4.00
   6210.00   13.040  4.00
   6214.00   13.041  4.00
   6218.00   13.041  4.00
   6222.00   13.042  4.00
   6226.00   13.043  4.00
   6230.00   13.044  4.00
   6234.00   13.044  4.00
   6238.00   13.045  4.00
   6242.00   13.046  4.00
   6246.00   13.046  4.00
   6250.00   13.047  4.00
   6254.00   13.047  4.00
   6258.00   13.047  4.00
   6262.00   13.047  4.00
   6266.00   13.046  4.00
   6270.00   13.046  4.00
   6274.00   13.046  4.00
   6278.00   13.045  4.00
   6282.00   13.045  4.00
   6286.00   13.045  4.00
   6290.00   13.045  4.00
   6294.00   13.045  4.00
   6298.00   13.046  4.00
   6302.00   13.046  4.00
   6306.00   13.047  4.00
   6310.00   13.047  4.00
   6314.00   13.047  4.00
   6318.00   13.048  4.00
   6322.00   13.049  4.00
   6326.00   13.049  4.00
   6330.00   13.050  4.00
   6334.00   13.050  4.00
   6338.00   13.051  4.00
   6342.00   13.051  4.00
   6346.00   13.051  4.00
   6350.00   13.051  4.00
   6354.00   13.051  4.00
   6358.00   13.051  4.00
   6362.00   13.051  4.00
   6366.00   13.051  4.00
   6370.00   13.052  4.00
   6374.00   13.052  4.00
   6378.00   13.052  4.00
   6382.00   13.052  4.00
   6386.00   13.052  4.00
   6390.00   13.052  4.00
   6394.00   13.053  4.00
   6398.00   13.054  4.00
   6402.00   13.055  4.00
   6406.00   13.056  4.00
   6410.00   13.056  4.00
   6414.00   13.056  4.00
   6418.00   13.056  4.00
   6422.00   13.056  4.00
   6426.00   13.056  4.00
   6430.00   13.057  4.00
   6434.00   13.057  4.00
   6438.00   13.057  4.00
   6442.00   13.057  4.00
   6446.00   13.058  4.00
   6450.00   13.059  4.00
   6454.00   13.059  4.00
   6458.00   13.060  4.00
   6462.00   13.061  4.00
   6466.00   13.062  4.00
   6470.00   13.063  4.00
   6474.00   13.065  4.00
   6478.00   13.066  4.00
   6482.00   13.067  4.00
   6486.00   13.069  4.00
   6490.00   13.070  4.00
   6494.00   13.071  4.00
   6498.00   13.073  4.00
   6502.00   13.074  4.00
   6506.00   13.077  4.00
   6510.00   13.081  4.00
   6514.00   13.086  4.00
   6518.00   13.091  4.00
   6522.00   13.094  4.00
   6526.00   13.096  4.00
   6530.00   13.098  4.00
   6534.00   13.101  4.00
   6538.00   13.108  4.00
   6542.00   13.114  4.00
   6546.00   13.119  4.00
   6550.00   13.124  4.00
   6554.00   13.126  4.00
   6558.00   13.129  4.00
   6562.00   13.130  4.00
   6566.00   13.129  4.00
   6570.00   13.126  4.00
   6574.00   13.121  4.00
   6578.00   13.117  4.00
   6582.00   13.111  4.00
   6586.00   13.106  4.00
   6590.00   13.101  4.00
   6594.00   13.097  4.00
   6598.00   13.095  4.00
   6602.00   13.094  4.00
   6606.00   13.091  4.00
   6610.00   13.087  4.00
   6614.00   13.085  4.00
   6618.00   13.083  4.00
   6622.00   13.081  4.00
   6626.00   13.080  4.00
   6630.00   13.078  4.00
   6634.00   13.077  4.00
   6638.00   13.078  4.00
   6642.00   13.079  4.00
   6646.00   13.079  4.00
   6650.00   13.079  4.00
   6654.00   13.078  4.00
   6658.00   13.077  4.00
   6662.00   13.075  4.00
   6666.00   13.073  4.00
   6670.00   13.070  4.00
   6674.00   13.070  4.00
   6678.00   13.069  4.00
   6682.00   13.068  4.00
   6686.00   13.069  4.00
   6690.00   13.068  4.00
   6694.00   13.067  4.00
   6698.00   13.067  4.00
   6702.00   13.065  4.00
   6706.00   13.065  4.00
   6710.00   13.064  4.00
   6714.00   13.063  4.00
   6718.00   13.063  4.00
   6722.00   13.062  4.00
   6726.00   13.062  4.00
   6730.00   13.062  4.00
   6734.00   13.061  4.00
   6738.00   13.061  4.00
   6742.00   13.061  4.00
   6746.00   13.061  4.00
   6750.00   13.061  4.00
   6754.00   13.061  4.00
   6758.00   13.061  4.00
   6762.00   13.061  4.00
   6766.00   13.061  4.00
   6770.00   13.062  4.00
   6774.00   13.062  4.00
   6778.00   13.062  4.00
   6782.00   13.062  4.00
   6786.00   13.063  4.00
   6790.00   13.063  4.00
   6794.00   13.063  4.00
   6798.00   13.063  4.00
   6802.00   13.064  4.00
   6806.00   13.064  4.00
   6810.00   13.064  4.00
   6814.00   13.064  4.00
   6818.00   13.064  4.00
   6822.00   13.064  4.00
   6826.00   13.064  4.00
   6830.00   13.064  4.00
   6834.00   13.064  4.00
   6838.00   13.064  4.00
   6842.00   13.063  4.00
   6846.00   13.063  4.00
   6850.00   13.063  4.00
   6854.00   13.063  4.00
   6858.00   13.063  4.00
   6862.00   13.063  4.00
   6866.00   13.062  4.00
   6870.00   13.062  4.00
   6874.00   13.062  4.00
   6878.00   13.062  4.00
   6882.00   13.062  4.00
   6886.00   13.062  4.00
   6890.00   13.062  4.00
   6894.00   13.062  4.00
   6898.00   13.063  4.00
   6902.00   13.063  4.00
   6906.00   13.063  4.00
   6910.00   13.063  4.00
   6914.00   13.064  4.00
   6918.00   13.064  4.00
   6922.00   13.065  4.00
   6926.00   13.065  4.00
   6930.00   13.065  4.00
   6934.00   13.065  4.00
   6938.00   13.065  4.00
   6942.00   13.066  4.00
   6946.00   13.066  4.00
   6950.00   13.066  4.00
   6954.00   13.066  4.00
   6958.00   13.066  4.00
   6962.00   13.066  4.00
   6966.00   13.066  4.00
   6970.00   13.066  4.00
   6974.00   13.067  4.00
   6978.00   13.067  4.00
   6982.00   13.067  4.00
   6986.00   13.067  4.00
   6990.00   13.068  4.00
   6994.00   13.068  4.00
   6998.00   13.068  4.00
   7002.00   13.068  4.00
   7006.00   13.069  4.00
   7010.00   13.069  4.00
   7014.00   13.069  4.00
   7018.00   13.069  4.00
   7022.00   13.069  4.00
   7026.00   13.070  4.00
   7030.00   13.071  4.00
   7034.00   13.071  4.00
   7038.00   13.072  4.00
   7042.00   13.072  4.00
   7046.00   13.072  4.00
   7050.00   13.073  4.00
   7054.00   13.073  4.00
   7058.00   13.073  4.00
   7062.00   13.073  4.00
   7066.00   13.074  4.00
   7070.00   13.074  4.00
   7074.00   13.074  4.00
   7078.00   13.074  4.00
   7082.00   13.075  4.00
   7086.00   13.075  4.00
   7090.00   13.075  4.00
   7094.00   13.076  4.00
   7098.00   13.076  4.00
   7102.00   13.076  4.00
   7106.00   13.076  4.00
   7110.00   13.077  4.00
   7114.00   13.077  4.00
   7118.00   13.077  4.00
   7122.00   13.078  4.00
   7126.00   13.078  4.00
   7130.00   13.078  4.00
   7134.00   13.078  4.00
   7138.00   13.079  4.00
   7142.00   13.079  4.00
   7146.00   13.079  4.00
   7150.00   13.079  4.00
   7154.00   13.080  4.00
   7158.00   13.080  4.00
   7162.00   13.080  4.00
   7166.00   13.080  4.00
   7170.00   13.080  4.00
   7174.00   13.080  4.00
   7178.00   13.081  4.00
   7182.00   13.081  4.00
   7186.00   13.081  4.00
   7190.00   13.081  4.00
   7194.00   13.081  4.00
   7198.00   13.082  4.00
   7202.00   13.082  4.00
   7206.00   13.082  4.00
   7210.00   13.083  4.00
   7214.00   13.083  4.00
   7218.00   13.084  4.00
   7222.00   13.084  4.00
   7226.00   13.084  4.00
   7230.00   13.084  4.00
   7234.00   13.085  4.00
   7238.00   13.085  4.00
   7242.00   13.085  4.00
   7246.00   13.086  4.00
   7250.00   13.086  4.00
   7254.00   13.086  4.00
   7258.00   13.087  4.00
   7262.00   13.087  4.00
   7266.00   13.087  4.00
   7270.00   13.087  4.00
   7274.00   13.088  4.00
   7278.00   13.088  4.00
   7282.00   13.089  4.00
   7286.00   13.089  4.00
   7290.00   13.089  4.00
   7294.00   13.090  4.00
   7298.00   13.090  4.00
   7302.00   13.090  4.00
   7306.00   13.090  4.00
   7310.00   13.090  4.00
   7314.00   13.091  4.00
   7318.00   13.091  4.00
   7322.00   13.091  4.00
   7326.00   13.091  4.00
   7330.00   13.092  4.00
   7334.00   13.092  4.00
   7338.00   13.092  4.00
   7342.00   13.092  4.00
   7346.00   13.093  4.00
   7350.00   13.093  4.00
   7354.00   13.093  4.00
   7358.00   13.093  4.00
   7362.00   13.093  4.00
   7366.00   13.093  4.00
   7370.00   13.093  4.00
   7374.00   13.093  4.00
   7378.00   13.093  4.00
   7382.00   13.093  4.00
   7386.00   13.093  4.00
   7390.00   13.093  4.00
   7394.00   13.094  4.00
   7398.00   13.094  4.00
   7402.00   13.095  4.00
   7406.00   13.095  4.00
   7410.00   13.096  4.00
   7414.00   13.096  4.00
   7418.00   13.097  4.00
   7422.00   13.097  4.00
   7426.00   13.097  4.00
   7430.00   13.098  4.00
   7434.00   13.098  4.00
   7438.00   13.099  4.00
   7442.00   13.099  4.00
   7446.00   13.100  4.00
   7450.00   13.100  4.00
   7454.00   13.101  4.00
   7458.00   13.101  4.00
   7462.00   13.102  4.00
   7466.00   13.102  4.00
   7470.00   13.103  4.00
   7474.00   13.103  4.00
   7478.00   13.104  4.00
   7482.00   13.104  4.00
   7486.00   13.104  4.00
   7490.00   13.105  4.00
   7494.00   13.105  4.00
   7498.00   13.105  4.00
   7502.00   13.105  4.00
   7506.00   13.105  4.00
   7510.00   13.106  4.00
   7514.00   13.106  4.00
   7518.00   13.106  4.00
   7522.00   13.106  4.00
   7526.00   13.106  4.00
   7530.00   13.106  4.00
   7534.00   13.107  4.00
   7538.00   13.107  4.00
   7542.00   13.107  4.00
   7546.00   13.107  4.00
   7550.00   13.107  4.00
   7554.00   13.107  4.00
   7558.00   13.107  4.00
   7562.00   13.107  4.00
   7566.00   13.107  4.00
   7570.00   13.108  4.00
   7574.00   13.108  4.00
   7578.00   13.108  4.00
   7582.00   13.108  4.00
   7586.00   13.108  4.00
   7590.00   13.108  4.00
   7594.00   13.109  4.00
   7598.00   13.109  4.00
   7602.00   13.109  4.00
   7606.00   13.109  4.00
   7610.00   13.110  4.00
   7614.00   13.110  4.00
   7618.00   13.110  4.00
   7622.00   13.110  4.00
   7626.00   13.111  4.00
   7630.00   13.111  4.00
   7634.00   13.111  4.00
   7638.00   13.111  4.00
   7642.00   13.112  4.00
   7646.00   13.112  4.00
   7650.00   13.112  4.00
   7654.00   13.113  4.00
   7658.00   13.113  4.00
   7662.00   13.113  4.00
   7666.00   13.113  4.00
   7670.00   13.114  4.00
   7674.00   13.114  4.00
   7678.00   13.115  4.00
   7682.00   13.115  4.00
   7686.00   13.115  4.00
   7690.00   13.116  4.00
   7694.00   13.116  4.00
   7698.00   13.116  4.00
   7702.00   13.117  4.00
   7706.00   13.117  4.00
   7710.00   13.118  4.00
   7714.00   13.118  4.00
   7718.00   13.119  4.00
   7722.00   13.119  4.00
   7726.00   13.120  4.00
   7730.00   13.120  4.00
   7734.00   13.121  4.00
   7738.00   13.121  4.00
   7742.00   13.122  4.00
   7746.00   13.122  4.00
   7750.00   13.123  4.00
   7754.00   13.124  4.00
   7758.00   13.124  4.00
   7762.00   13.125  4.00
   7766.00   13.126  4.00
   7770.00   13.126  4.00
   7774.00   13.127  4.00
   7778.00   13.127  4.00
   7782.00   13.128  4.00
   7786.00   13.129  4.00
   7790.00   13.129  4.00
   7794.00   13.130  4.00
   7798.00   13.130  4.00
   7802.00   13.131  4.00
   7806.00   13.131  4.00
   7810.00   13.131  4.00
   7814.00   13.131  4.00
   7818.00   13.132  4.00
   7822.00   13.132  4.00
   7826.00   13.132  4.00
   7830.00   13.133  4.00
   7834.00   13.133  4.00
   7838.00   13.133  4.00
   7842.00   13.133  4.00
   7846.00   13.133  4.00
   7850.00   13.133  4.00
   7854.00   13.133  4.00
   7858.00   13.133  4.00
   7862.00   13.133  4.00
   7866.00   13.133  4.00
   7870.00   13.134  4.00
   7874.00   13.134  4.00
   7878.00   13.134  4.00
   7882.00   13.135  4.00
   7886.00   13.135  4.00
   7890.00   13.135  4.00
   7894.00   13.135  4.00
   7898.00   13.136  4.00
   7902.00   13.136  4.00
   7906.00   13.136  4.00
   7910.00   13.136  4.00
   7914.00   13.136  4.00
   7918.00   13.136  4.00
   7922.00   13.136  4.00
   7926.00   13.136  4.00
   7930.00   13.136  4.00
   7934.00   13.136  4.00
   7938.00   13.136  4.00
   7942.00   13.136  4.00
   7946.00   13.136  4.00
   7950.00   13.136  4.00
   7954.00   13.136  4.00
   7958.00   13.136  4.00
   7962.00   13.136  4.00
   7966.00   13.136  4.00
   7970.00   13.136  4.00
   7974.00   13.136  4.00
   7978.00   13.136  4.00
   7982.00   13.136  4.00
   7986.00   13.137  4.00
   7990.00   13.137  4.00
   7994.00   13.138  4.00
   7998.00   13.138  4.00
   8002.00   13.138  4.00
   8006.00   13.139  4.00
   8010.00   13.140  4.00
   8014.00   13.140  4.00
   8018.00   13.141  4.00
   8022.00   13.141  4.00
   8026.00   13.141  4.00
   8030.00   13.142  4.00
   8034.00   13.142  4.00
   8038.00   13.143  4.00
   8042.00   13.143  4.00
   8046.00   13.144  4.00
   8050.00   13.144  4.00
   8054.00   13.145  4.00
   8058.00   13.145  4.00
   8062.00   13.145  4.00
   8066.00   13.145  4.00
   8070.00   13.146  4.00
   8074.00   13.146  4.00
   8078.00   13.146  4.00
   8082.00   13.147  4.00
   8086.00   13.147  4.00
   8090.00   13.147  4.00
   8094.00   13.147  4.00
   8098.00   13.147  4.00
   8102.00   13.148  4.00
   8106.00   13.148  4.00
   8110.00   13.148  4.00
   8114.00   13.149  4.00
   8118.00   13.149  4.00
   8122.00   13.149  4.00
   8126.00   13.150  4.00
   8130.00   13.150  4.00
   8134.00   13.151  4.00
   8138.00   13.151  4.00
   8142.00   13.151  4.00
   8146.00   13.152  4.00
   8150.00   13.152  4.00
   8154.00   13.152  4.00
   8158.00   13.152  4.00
   8162.00   13.152  4.00
   8166.00   13.153  4.00
   8170.00   13.153  4.00
   8174.00   13.153  4.00
   8178.00   13.153  4.00
   8182.00   13.154  4.00
   8186.00   13.154  4.00
   8190.00   13.155  4.00
   8194.00   13.156  4.00
   8198.00   13.156  4.00
   8202.00   13.156  4.00
   8206.00   13.157  4.00
   8210.00   13.157  4.00
   8214.00   13.157  4.00
   8218.00   13.158  4.00
   8222.00   13.158  4.00
   8226.00   13.159  4.00
   8230.00   13.159  4.00
   8234.00   13.159  4.00
   8238.00   13.160  4.00
   8242.00   13.161  4.00
   8246.00   13.161  4.00
   8250.00   13.162  4.00
   8254.00   13.163  4.00
   8258.00   13.163  4.00
   8262.00   13.164  4.00
   8266.00   13.164  4.00
   8270.00   13.164  4.00
   8274.00   13.165  4.00
   8278.00   13.165  4.00
   8282.00   13.165  4.00
   8286.00   13.165  4.00
   8290.00   13.165  4.00
   8294.00   13.165  4.00
   8298.00   13.166  4.00
   8302.00   13.166  4.00
   8306.00   13.167  4.00
   8310.00   13.167  4.00
   8314.00   13.167  4.00
   8318.00   13.168  4.00
   8322.00   13.168  4.00
   8326.00   13.168  4.00
   8330.00   13.168  4.00
   8334.00   13.167  4.00
   8338.00   13.167  4.00
   8342.00   13.167  4.00
   8346.00   13.167  4.00
   8350.00   13.167  4.00
   8354.00   13.167  4.00
   8358.00   13.167  4.00
   8362.00   13.167  4.00
   8366.00   13.167  4.00
   8370.00   13.167  4.00
   8374.00   13.167  4.00
   8378.00   13.167  4.00
   8382.00   13.167  4.00
   8386.00   13.167  4.00
   8390.00   13.167  4.00
   8394.00   13.167  4.00
   8398.00   13.167  4.00
   8402.00   13.167  4.00
   8406.00   13.167  4.00
   8410.00   13.167  4.00
   8414.00   13.168  4.00
   8418.00   13.168  4.00
   8422.00   13.169  4.00
   8426.00   13.169  4.00
   8430.00   13.170  4.00
   8434.00   13.170  4.00
   8438.00   13.171  4.00
   8442.00   13.172  4.00
   8446.00   13.172  4.00
   8450.00   13.173  4.00
   8454.00   13.173  4.00
   8458.00   13.174  4.00
   8462.00   13.174  4.00
   8466.00   13.175  4.00
   8470.00   13.176  4.00
   8474.00   13.177  4.00
   8478.00   13.178  4.00
   8482.00   13.179  4.00
   8486.00   13.180  4.00
   8490.00   13.182  4.00
   8494.00   13.183  4.00
   8498.00   13.184  4.00
   8502.00   13.185  4.00
   8506.00   13.185  4.00
   8510.00   13.186  4.00
   8514.00   13.186  4.00
   8518.00   13.187  4.00
   8522.00   13.187  4.00
   8526.00   13.187  4.00
   8530.00   13.188  4.00
   8534.00   13.188  4.00
   8538.00   13.188  4.00
   8542.00   13.188  4.00
   8546.00   13.189  4.00
   8550.00   13.189  4.00
   8554.00   13.188  4.00
   8558.00   13.188  4.00
   8562.00   13.188  4.00
   8566.00   13.188  4.00
   8570.00   13.188  4.00
   8574.00   13.188  4.00
   8578.00   13.188  4.00
   8582.00   13.188  4.00
   8586.00   13.188  4.00
   8590.00   13.188  4.00
   8594.00   13.188  4.00
   8598.00   13.188  4.00
   8602.00   13.189  4.00
   8606.00   13.190  4.00
   8610.00   13.191  4.00
   8614.00   13.191  4.00
   8618.00   13.192  4.00
   8622.00   13.192  4.00
   8626.00   13.193  4.00
   8630.00   13.194  4.00
   8634.00   13.194  4.00
   8638.00   13.195  4.00
   8642.00   13.195  4.00
   8646.00   13.196  4.00
   8650.00   13.196  4.00
   8654.00   13.196  4.00
   8658.00   13.197  4.00
   8662.00   13.197  4.00
   8666.00   13.197  4.00
   8670.00   13.197  4.00
   8674.00   13.198  4.00
   8678.00   13.198  4.00
   8682.00   13.198  4.00
   8686.00   13.198  4.00
   8690.00   13.198  4.00
   8694.00   13.197  4.00
   8698.00   13.197  4.00
   8702.00   13.196  4.00
   8706.00   13.196  4.00
   8710.00   13.197  4.00
   8714.00   13.197  4.00
   8718.00   13.197  4.00
   8722.00   13.197  4.00
   8726.00   13.197  4.00
   8730.00   13.197  4.00
   8734.00   13.197  4.00
   8738.00   13.197  4.00
   8742.00   13.198  4.00
   8746.00   13.198  4.00
   8750.00   13.199  4.00
   8754.00   13.200  4.00
   8758.00   13.200  4.00
   8762.00   13.201  4.00
   8766.00   13.201  4.00
   8770.00   13.201  4.00
   8774.00   13.201  4.00
   8778.00   13.202  4.00
   8782.00   13.202  4.00
   8786.00   13.203  4.00
   8790.00   13.204  4.00
   8794.00   13.205  4.00
   8798.00   13.206  4.00
   8802.00   13.207  4.00
   8806.00   13.206  4.00
   8810.00   13.205  4.00
   8814.00   13.204  4.00
   8818.00   13.203  4.00
   8822.00   13.203  4.00
   8826.00   13.203  4.00
   8830.00   13.203  4.00
   8834.00   13.203  4.00
   8838.00   13.202  4.00
   8842.00   13.202  4.00
   8846.00   13.201  4.00
   8850.00   13.201  4.00
   8854.00   13.200  4.00
   8858.00   13.200  4.00
   8862.00   13.199  4.00
   8866.00   13.199  4.00
   8870.00   13.199  4.00
   8874.00   13.200  4.00
   8878.00   13.200  4.00
   8882.00   13.200  4.00
   8886.00   13.201  4.00
   8890.00   13.201  4.00
   8894.00   13.202  4.00
   8898.00   13.202  4.00
   8902.00   13.203  4.00
   8906.00   13.204  4.00
   8910.00   13.205  4.00
   8914.00   13.206  4.00
   8918.00   13.208  4.00
   8922.00   13.208  4.00
   8926.00   13.209  4.00
   8930.00   13.210  4.00
   8934.00   13.211  4.00
   8938.00   13.211  4.00
   8942.00   13.212  4.00
   8946.00   13.213  4.00
   8950.00   13.213  4.00
   8954.00   13.214  4.00
   8958.00   13.214  4.00
   8962.00   13.215  4.00
   8966.00   13.215  4.00
   8970.00   13.215  4.00
   8974.00   13.215  4.00
   8978.00   13.215  4.00
   8982.00   13.215  4.00
   8986.00   13.215  4.00
   8990.00   13.215  4.00
   8994.00   13.215  4.00
   8998.00   13.215  4.00
   9002.00   13.216  4.00
   9006.00   13.216  4.00
   9010.00   13.216  4.00
   9014.00   13.215  4.00
   9018.00   13.215  4.00
   9022.00   13.215  4.00
   9026.00   13.215  4.00
   9030.00   13.215  4.00
   9034.00   13.215  4.00
   9038.00   13.216  4.00
   9042.00   13.216  4.00
   9046.00   13.216  4.00
   9050.00   13.217  4.00
   9054.00   13.217  4.00
   9058.00   13.218  4.00
   9062.00   13.218  4.00
   9066.00   13.219  4.00
   9070.00   13.219  4.00
   9074.00   13.220  4.00
   9078.00   13.220  4.00
   9082.00   13.221  4.00
   9086.00   13.221  4.00
   9090.00   13.221  4.00
   9094.00   13.222  4.00
   9098.00   13.222  4.00
   9102.00   13.222  4.00
   9106.00   13.223  4.00
   9110.00   13.223  4.00
   9114.00   13.223  4.00
   9118.00   13.224  4.00
   9122.00   13.224  4.00
   9126.00   13.224  4.00
   9130.00   13.225  4.00
   9134.00   13.225  4.00
   9138.00   13.225  4.00
   9142.00   13.226  4.00
   9146.00   13.226  4.00
   9150.00   13.227  4.00
   9154.00   13.227  4.00
   9158.00   13.228  4.00
   9162.00   13.228  4.00
   9166.00   13.229  4.00
   9170.00   13.229  4.00
   9174.00   13.230  4.00
   9178.00   13.230  4.00
   9182.00   13.230  4.00
   9186.00   13.231  4.00
   9190.00   13.231  4.00
   9194.00   13.232  4.00
   9198.00   13.232  4.00
   9202.00   13.232  4.00
   9206.00   13.233  4.00
   9210.00   13.233  4.00
   9214.00   13.233  4.00
   9218.00   13.234  4.00
   9222.00   13.234  4.00
   9226.00   13.234  4.00
   9230.00   13.235  4.00
   9234.00   13.235  4.00
   9238.00   13.235  4.00
   9242.00   13.236  4.00
   9246.00   13.236  4.00
   9250.00   13.236  4.00
   9254.00   13.237  4.00
   9258.00   13.237  4.00
   9262.00   13.238  4.00
   9266.00   13.238  4.00
   9270.00   13.238  4.00
   9274.00   13.239  4.00
   9278.00   13.239  4.00
   9282.00   13.240  4.00
   9286.00   13.240  4.00
   9290.00   13.241  4.00
   9294.00   13.241  4.00
   9298.00   13.242  4.00
   9302.00   13.242  4.00
   9306.00   13.243  4.00
   9310.00   13.243  4.00
   9314.00   13.244  4.00
   9318.00   13.244  4.00
   9322.00   13.245  4.00
   9326.00   13.245  4.00
   9330.00   13.246  4.00
   9334.00   13.246  4.00
   9338.00   13.247  4.00
   9342.00   13.247  4.00
   9346.00   13.248  4.00
   9350.00   13.248  4.00
   9354.00   13.249  4.00
   9358.00   13.249  4.00
   9362.00   13.250  4.00
   9366.00   13.250  4.00
   9370.00   13.250  4.00
   9374.00   13.251  4.00
   9378.00   13.251  4.00
   9382.00   13.252  4.00
   9386.00   13.252  4.00
   9390.00   13.252  4.00
   9394.00   13.253  4.00
   9398.00   13.253  4.00
   9402.00   13.253  4.00
   9406.00   13.254  4.00
   9410.00   13.254  4.00
   9414.00   13.254  4.00
   9418.00   13.254  4.00
   9422.00   13.255  4.00
   9426.00   13.255  4.00
   9430.00   13.255  4.00
   9434.00   13.255  4.00
   9438.00   13.255  4.00
   9442.00   13.256  4.00
   9446.00   13.256  4.00
   9450.00   13.256  4.00
   9454.00   13.256  4.00
   9458.00   13.256  4.00
   9462.00   13.257  4.00
   9466.00   13.257  4.00
   9470.00   13.257  4.00
   9474.00   13.257  4.00
   9478.00   13.257  4.00
   9482.00   13.258  4.00
   9486.00   13.258  4.00
   9490.00   13.258  4.00
   9494.00   13.258  4.00
   9498.00   13.258  4.00
   9502.00   13.259  4.00
   9506.00   13.259  4.00
   9510.00   13.259  4.00
   9514.00   13.259  4.00
   9518.00   13.259  4.00
   9522.00   13.260  4.00
   9526.00   13.260  4.00
   9530.00   13.260  4.00
   9534.00   13.260  4.00
   9538.00   13.261  4.00
   9542.00   13.261  4.00
   9546.00   13.261  4.00
   9550.00   13.261  4.00
   9554.00   13.261  4.00
   9558.00   13.262  4.00
   9562.00   13.262  4.00
   9566.00   13.262  4.00
   9570.00   13.262  4.00
   9574.00   13.263  4.00
   9578.00   13.263  4.00
   9582.00   13.263  4.00
   9586.00   13.263  4.00
   9590.00   13.264  4.00
   9594.00   13.264  4.00
   9598.00   13.264  4.00
   9602.00   13.264  4.00
   9606.00   13.265  4.00
   9610.00   13.265  4.00
   9614.00   13.265  4.00
   9618.00   13.265  4.00
   9622.00   13.266  4.00
   9626.00   13.266  4.00
   9630.00   13.266  4.00
   9634.00   13.266  4.00
   9638.00   13.266  4.00
   9642.00   13.267  4.00
   9646.00   13.267  4.00
   9650.00   13.267  4.00
   9654.00   13.267  4.00
   9658.00   13.267  4.00
   9662.00   13.267  4.00
   9666.00   13.267  4.00
   9670.00   13.268  4.00
   9674.00   13.268  4.00
   9678.00   13.268  4.00
   9682.00   13.268  4.00
   9686.00   13.268  4.00
   9690.00   13.268  4.00
   9694.00   13.268  4.00
   9698.00   13.268  4.00
   9702.00   13.268  4.00
   9706.00   13.269  4.00
   9710.00   13.269  4.00
   9714.00   13.269  4.00
   9718.00   13.269  4.00
   9722.00   13.269  4.00
   9726.00   13.269  4.00
   9730.00   13.269  4.00
   9734.00   13.269  4.00
   9738.00   13.270  4.00
   9742.00   13.270  4.00
   9746.00   13.270  4.00
   9750.00   13.270  4.00
   9754.00   13.270  4.00
   9758.00   13.270  4.00
   9762.00   13.270  4.00
   9766.00   13.271  4.00
   9770.00   13.271  4.00
   9774.00   13.271  4.00
   9778.00   13.271  4.00
   9782.00   13.271  4.00
   9786.00   13.271  4.00
   9790.00   13.271  4.00
   9794.00   13.272  4.00
   9798.00   13.272  4.00
   9802.00   13.272  4.00
   9806.00   13.272  4.00
   9810.00   13.272  4.00
   9814.00   13.272  4.00
   9818.00   13.272  4.00
   9822.00   13.273  4.00
   9826.00   13.273  4.00
   9830.00   13.273  4.00
   9834.00   13.273  4.00
   9838.00   13.273  4.00
   9842.00   13.273  4.00
   9846.00   13.273  4.00
   9850.00   13.273  4.00
   9854.00   13.273  4.00
   9858.00   13.273  4.00
   9862.00   13.273  4.00
   9866.00   13.272  4.00
   9870.00   13.272  4.00
   9874.00   13.272  4.00
   9878.00   13.271  4.00
   9882.00   13.271  4.00
   9886.00   13.271  4.00
   9890.00   13.271  4.00
   9894.00   13.271  4.00
   9898.00   13.271  4.00
   9902.00   13.271  4.00
   9906.00   13.271  4.00
   9910.00   13.271  4.00
   9914.00   13.271  4.00
   9918.00   13.271  4.00
   9922.00   13.271  4.00
   9926.00   13.271  4.00
   9930.00   13.271  4.00
   9934.00   13.271  4.00
   9938.00   13.271  4.00
   9942.00   13.271  4.00
   9946.00   13.271  4.00
   9950.00   13.271  4.00
   9954.00   13.271  4.00
   9958.00   13.271  4.00
   9962.00   13.271  4.00
   9966.00   13.271  4.00
   9970.00   13.271  4.00
   9974.00   13.271  4.00
   9978.00   13.271  4.00
   9982.00   13.271  4.00
   9986.00   13.271  4.00
   9990.00   13.271  4.00
   9994.00   13.271  4.00
   9998.00   13.271  4.00
  10002.00   13.271  4.00
  10006.00   13.271  4.00
  10010.00   13.271  4.00
  10014.00   13.271  4.00
  10018.00   13.271  4.00
  10022.00   13.271  4.00
  10026.00   13.271  4.00
  10030.00   13.271  4.00
  10034.00   13.271  4.00
  10038.00   13.271  4.00
  10042.00   13.271  4.00
  10046.00   13.271  4.00
  10050.00   13.271  4.00
  10054.00   13.271  4.00
  10058.00   13.271  4.00
  10062.00   13.271  4.00
  10066.00   13.271  4.00
  10070.00   13.271  4.00
  10074.00   13.271  4.00
  10078.00   13.271  4.00
  10082.00   13.271  4.00
  10086.00   13.271  4.00
  10090.00   13.271  4.00
  10094.00   13.271  4.00
  10098.00   13.271  4.00
  10102.00   13.271  4.00
  10106.00   13.271  4.00
  10110.00   13.271  4.00
  10114.00   13.271  4.00
  10118.00   13.271  4.00
  10122.00   13.271  4.00
  10126.00   13.271  4.00
  10130.00   13.271  4.00
  10134.00   13.271  4.00
  10138.00   13.271  4.00
  10142.00   13.271  4.00
  10146.00   13.271  4.00
  10150.00   13.271  4.00
  10154.00   13.271  4.00
  10158.00   13.271  4.00
  10162.00   13.271  4.00
  10166.00   13.271  4.00
  10170.00   13.271  4.00
  10174.00   13.271  4.00
  10178.00   13.271  4.00
  10182.00   13.271  4.00
  10186.00   13.271  4.00
  10190.00   13.271  4.00
  10194.00   13.271  4.00
  10198.00   13.271  4.00
  10202.00   13.271  4.00
