#VMa2                                                        
#                                                            
#  BESSELL 2008 from Heap-Lindler STIS standards             
# wavelength  ABmag  band
   3100.00   15.942  4.00
   3104.00   15.664  4.00
   3108.00   15.628  4.00
   3112.00   15.568  4.00
   3116.00   15.505  4.00
   3120.00   15.445  4.00
   3124.00   15.388  4.00
   3128.00   15.333  4.00
   3132.00   15.281  4.00
   3136.00   15.231  4.00
   3140.00   15.183  4.00
   3144.00   15.138  4.00
   3148.00   15.100  4.00
   3152.00   15.062  4.00
   3156.00   15.018  4.00
   3160.00   14.971  4.00
   3164.00   14.926  4.00
   3168.00   14.883  4.00
   3172.00   14.841  4.00
   3176.00   14.801  4.00
   3180.00   14.762  4.00
   3184.00   14.724  4.00
   3188.00   14.687  4.00
   3192.00   14.651  4.00
   3196.00   14.616  4.00
   3200.00   14.585  4.00
   3204.00   14.562  4.00
   3208.00   14.542  4.00
   3212.00   14.513  4.00
   3216.00   14.480  4.00
   3220.00   14.463  4.00
   3224.00   14.453  4.00
   3228.00   14.428  4.00
   3232.00   14.387  4.00
   3236.00   14.355  4.00
   3240.00   14.334  4.00
   3244.00   14.316  4.00
   3248.00   14.304  4.00
   3252.00   14.304  4.00
   3256.00   14.294  4.00
   3260.00   14.259  4.00
   3264.00   14.229  4.00
   3268.00   14.212  4.00
   3272.00   14.192  4.00
   3276.00   14.174  4.00
   3280.00   14.155  4.00
   3284.00   14.135  4.00
   3288.00   14.127  4.00
   3292.00   14.120  4.00
   3296.00   14.098  4.00
   3300.00   14.073  4.00
   3304.00   14.055  4.00
   3308.00   14.044  4.00
   3312.00   14.041  4.00
   3316.00   14.037  4.00
   3320.00   14.012  4.00
   3324.00   13.977  4.00
   3328.00   13.956  4.00
   3332.00   13.952  4.00
   3336.00   13.947  4.00
   3340.00   13.940  4.00
   3344.00   13.931  4.00
   3348.00   13.922  4.00
   3352.00   13.919  4.00
   3356.00   13.913  4.00
   3360.00   13.894  4.00
   3364.00   13.870  4.00
   3368.00   13.854  4.00
   3372.00   13.851  4.00
   3376.00   13.854  4.00
   3380.00   13.845  4.00
   3384.00   13.831  4.00
   3388.00   13.823  4.00
   3392.00   13.819  4.00
   3396.00   13.819  4.00
   3400.00   13.820  4.00
   3404.00   13.812  4.00
   3408.00   13.798  4.00
   3412.00   13.791  4.00
   3416.00   13.794  4.00
   3420.00   13.801  4.00
   3424.00   13.806  4.00
   3428.00   13.815  4.00
   3432.00   13.831  4.00
   3436.00   13.845  4.00
   3440.00   13.836  4.00
   3444.00   13.798  4.00
   3448.00   13.752  4.00
   3452.00   13.722  4.00
   3456.00   13.708  4.00
   3460.00   13.702  4.00
   3464.00   13.698  4.00
   3468.00   13.691  4.00
   3472.00   13.676  4.00
   3476.00   13.654  4.00
   3480.00   13.635  4.00
   3484.00   13.626  4.00
   3488.00   13.622  4.00
   3492.00   13.613  4.00
   3496.00   13.602  4.00
   3500.00   13.590  4.00
   3504.00   13.577  4.00
   3508.00   13.569  4.00
   3512.00   13.566  4.00
   3516.00   13.565  4.00
   3520.00   13.561  4.00
   3524.00   13.554  4.00
   3528.00   13.548  4.00
   3532.00   13.543  4.00
   3536.00   13.537  4.00
   3540.00   13.535  4.00
   3544.00   13.541  4.00
   3548.00   13.555  4.00
   3552.00   13.571  4.00
   3556.00   13.586  4.00
   3560.00   13.599  4.00
   3564.00   13.611  4.00
   3568.00   13.619  4.00
   3572.00   13.620  4.00
   3576.00   13.613  4.00
   3580.00   13.594  4.00
   3584.00   13.563  4.00
   3588.00   13.527  4.00
   3592.00   13.498  4.00
   3596.00   13.478  4.00
   3600.00   13.467  4.00
   3604.00   13.469  4.00
   3608.00   13.473  4.00
   3612.00   13.470  4.00
   3616.00   13.462  4.00
   3620.00   13.454  4.00
   3624.00   13.445  4.00
   3628.00   13.435  4.00
   3632.00   13.424  4.00
   3636.00   13.418  4.00
   3640.00   13.417  4.00
   3644.00   13.419  4.00
   3648.00   13.417  4.00
   3652.00   13.411  4.00
   3656.00   13.413  4.00
   3660.00   13.424  4.00
   3664.00   13.431  4.00
   3668.00   13.433  4.00
   3672.00   13.444  4.00
   3676.00   13.464  4.00
   3680.00   13.480  4.00
   3684.00   13.491  4.00
   3688.00   13.503  4.00
   3692.00   13.521  4.00
   3696.00   13.551  4.00
   3700.00   13.590  4.00
   3704.00   13.628  4.00
   3708.00   13.672  4.00
   3712.00   13.726  4.00
   3716.00   13.779  4.00
   3720.00   13.803  4.00
   3724.00   13.797  4.00
   3728.00   13.798  4.00
   3732.00   13.822  4.00
   3736.00   13.825  4.00
   3740.00   13.791  4.00
   3744.00   13.742  4.00
   3748.00   13.686  4.00
   3752.00   13.616  4.00
   3756.00   13.558  4.00
   3760.00   13.521  4.00
   3764.00   13.486  4.00
   3768.00   13.450  4.00
   3772.00   13.427  4.00
   3776.00   13.417  4.00
   3780.00   13.419  4.00
   3784.00   13.432  4.00
   3788.00   13.450  4.00
   3792.00   13.467  4.00
   3796.00   13.487  4.00
   3800.00   13.513  4.00
   3804.00   13.545  4.00
   3808.00   13.584  4.00
   3812.00   13.627  4.00
   3816.00   13.668  4.00
   3820.00   13.694  4.00
   3824.00   13.694  4.00
   3828.00   13.678  4.00
   3832.00   13.666  4.00
   3836.00   13.656  4.00
   3840.00   13.639  4.00
   3844.00   13.619  4.00
   3848.00   13.606  4.00
   3852.00   13.605  4.00
   3856.00   13.613  4.00
   3860.00   13.598  4.00
   3864.00   13.555  4.00
   3868.00   13.510  4.00
   3872.00   13.484  4.00
   3876.00   13.471  4.00
   3880.00   13.464  4.00
   3884.00   13.462  4.00
   3888.00   13.462  4.00
   3892.00   13.459  4.00
   3896.00   13.458  4.00
   3900.00   13.464  4.00
   3904.00   13.481  4.00
   3908.00   13.514  4.00
   3912.00   13.567  4.00
   3916.00   13.639  4.00
   3920.00   13.741  4.00
   3924.00   13.888  4.00
   3928.00   14.078  4.00
   3932.00   14.244  4.00
   3936.00   14.249  4.00
   3940.00   14.104  4.00
   3944.00   13.943  4.00
   3948.00   13.836  4.00
   3952.00   13.784  4.00
   3956.00   13.782  4.00
   3960.00   13.836  4.00
   3964.00   13.944  4.00
   3968.00   14.030  4.00
   3972.00   13.984  4.00
   3976.00   13.833  4.00
   3980.00   13.688  4.00
   3984.00   13.580  4.00
   3988.00   13.497  4.00
   3992.00   13.429  4.00
   3996.00   13.374  4.00
   4000.00   13.330  4.00
   4004.00   13.295  4.00
   4008.00   13.265  4.00
   4012.00   13.238  4.00
   4016.00   13.215  4.00
   4020.00   13.197  4.00
   4024.00   13.186  4.00
   4028.00   13.177  4.00
   4032.00   13.166  4.00
   4036.00   13.155  4.00
   4040.00   13.144  4.00
   4044.00   13.128  4.00
   4048.00   13.106  4.00
   4052.00   13.089  4.00
   4056.00   13.077  4.00
   4060.00   13.067  4.00
   4064.00   13.055  4.00
   4068.00   13.043  4.00
   4072.00   13.031  4.00
   4076.00   13.019  4.00
   4080.00   13.005  4.00
   4084.00   12.990  4.00
   4088.00   12.979  4.00
   4092.00   12.975  4.00
   4096.00   12.972  4.00
   4100.00   12.967  4.00
   4104.00   12.959  4.00
   4108.00   12.952  4.00
   4112.00   12.951  4.00
   4116.00   12.949  4.00
   4120.00   12.942  4.00
   4124.00   12.933  4.00
   4128.00   12.928  4.00
   4132.00   12.923  4.00
   4136.00   12.919  4.00
   4140.00   12.919  4.00
   4144.00   12.918  4.00
   4148.00   12.910  4.00
   4152.00   12.900  4.00
   4156.00   12.895  4.00
   4160.00   12.893  4.00
   4164.00   12.893  4.00
   4168.00   12.891  4.00
   4172.00   12.887  4.00
   4176.00   12.883  4.00
   4180.00   12.884  4.00
   4184.00   12.885  4.00
   4188.00   12.885  4.00
   4192.00   12.881  4.00
   4196.00   12.876  4.00
   4200.00   12.870  4.00
   4204.00   12.868  4.00
   4208.00   12.869  4.00
   4212.00   12.872  4.00
   4216.00   12.876  4.00
   4220.00   12.878  4.00
   4224.00   12.877  4.00
   4228.00   12.871  4.00
   4232.00   12.863  4.00
   4236.00   12.856  4.00
   4240.00   12.851  4.00
   4244.00   12.849  4.00
   4248.00   12.849  4.00
   4252.00   12.847  4.00
   4256.00   12.843  4.00
   4260.00   12.838  4.00
   4264.00   12.832  4.00
   4268.00   12.825  4.00
   4272.00   12.821  4.00
   4276.00   12.819  4.00
   4280.00   12.816  4.00
   4284.00   12.810  4.00
   4288.00   12.802  4.00
   4292.00   12.795  4.00
   4296.00   12.790  4.00
   4300.00   12.787  4.00
   4304.00   12.787  4.00
   4308.00   12.788  4.00
   4312.00   12.784  4.00
   4316.00   12.778  4.00
   4320.00   12.771  4.00
   4324.00   12.765  4.00
   4328.00   12.763  4.00
   4332.00   12.760  4.00
   4336.00   12.756  4.00
   4340.00   12.751  4.00
   4344.00   12.746  4.00
   4348.00   12.744  4.00
   4352.00   12.745  4.00
   4356.00   12.747  4.00
   4360.00   12.749  4.00
   4364.00   12.749  4.00
   4368.00   12.746  4.00
   4372.00   12.742  4.00
   4376.00   12.741  4.00
   4380.00   12.741  4.00
   4384.00   12.740  4.00
   4388.00   12.735  4.00
   4392.00   12.730  4.00
   4396.00   12.726  4.00
   4400.00   12.722  4.00
   4404.00   12.717  4.00
   4408.00   12.712  4.00
   4412.00   12.709  4.00
   4416.00   12.705  4.00
   4420.00   12.700  4.00
   4424.00   12.692  4.00
   4428.00   12.684  4.00
   4432.00   12.680  4.00
   4436.00   12.678  4.00
   4440.00   12.675  4.00
   4444.00   12.672  4.00
   4448.00   12.668  4.00
   4452.00   12.663  4.00
   4456.00   12.658  4.00
   4460.00   12.655  4.00
   4464.00   12.651  4.00
   4468.00   12.648  4.00
   4472.00   12.648  4.00
   4476.00   12.650  4.00
   4480.00   12.652  4.00
   4484.00   12.652  4.00
   4488.00   12.651  4.00
   4492.00   12.650  4.00
   4496.00   12.649  4.00
   4500.00   12.647  4.00
   4504.00   12.647  4.00
   4508.00   12.646  4.00
   4512.00   12.644  4.00
   4516.00   12.641  4.00
   4520.00   12.637  4.00
   4524.00   12.631  4.00
   4528.00   12.628  4.00
   4532.00   12.629  4.00
   4536.00   12.629  4.00
   4540.00   12.627  4.00
   4544.00   12.626  4.00
   4548.00   12.626  4.00
   4552.00   12.623  4.00
   4556.00   12.619  4.00
   4560.00   12.618  4.00
   4564.00   12.619  4.00
   4568.00   12.619  4.00
   4572.00   12.616  4.00
   4576.00   12.612  4.00
   4580.00   12.610  4.00
   4584.00   12.609  4.00
   4588.00   12.609  4.00
   4592.00   12.609  4.00
   4596.00   12.607  4.00
   4600.00   12.608  4.00
   4604.00   12.608  4.00
   4608.00   12.604  4.00
   4612.00   12.598  4.00
   4616.00   12.596  4.00
   4620.00   12.595  4.00
   4624.00   12.595  4.00
   4628.00   12.592  4.00
   4632.00   12.590  4.00
   4636.00   12.588  4.00
   4640.00   12.590  4.00
   4644.00   12.593  4.00
   4648.00   12.592  4.00
   4652.00   12.588  4.00
   4656.00   12.585  4.00
   4660.00   12.583  4.00
   4664.00   12.582  4.00
   4668.00   12.581  4.00
   4672.00   12.582  4.00
   4676.00   12.584  4.00
   4680.00   12.582  4.00
   4684.00   12.578  4.00
   4688.00   12.575  4.00
   4692.00   12.575  4.00
   4696.00   12.575  4.00
   4700.00   12.576  4.00
   4704.00   12.575  4.00
   4708.00   12.575  4.00
   4712.00   12.575  4.00
   4716.00   12.575  4.00
   4720.00   12.574  4.00
   4724.00   12.574  4.00
   4728.00   12.574  4.00
   4732.00   12.573  4.00
   4736.00   12.572  4.00
   4740.00   12.571  4.00
   4744.00   12.571  4.00
   4748.00   12.570  4.00
   4752.00   12.570  4.00
   4756.00   12.570  4.00
   4760.00   12.570  4.00
   4764.00   12.569  4.00
   4768.00   12.569  4.00
   4772.00   12.569  4.00
   4776.00   12.568  4.00
   4780.00   12.568  4.00
   4784.00   12.566  4.00
   4788.00   12.565  4.00
   4792.00   12.563  4.00
   4796.00   12.562  4.00
   4800.00   12.561  4.00
   4804.00   12.560  4.00
   4808.00   12.558  4.00
   4812.00   12.557  4.00
   4816.00   12.555  4.00
   4820.00   12.554  4.00
   4824.00   12.552  4.00
   4828.00   12.551  4.00
   4832.00   12.549  4.00
   4836.00   12.546  4.00
   4840.00   12.545  4.00
   4844.00   12.543  4.00
   4848.00   12.542  4.00
   4852.00   12.541  4.00
   4856.00   12.540  4.00
   4860.00   12.539  4.00
   4864.00   12.539  4.00
   4868.00   12.539  4.00
   4872.00   12.539  4.00
   4876.00   12.538  4.00
   4880.00   12.538  4.00
   4884.00   12.538  4.00
   4888.00   12.537  4.00
   4892.00   12.537  4.00
   4896.00   12.537  4.00
   4900.00   12.537  4.00
   4904.00   12.536  4.00
   4908.00   12.535  4.00
   4912.00   12.534  4.00
   4916.00   12.533  4.00
   4920.00   12.533  4.00
   4924.00   12.532  4.00
   4928.00   12.531  4.00
   4932.00   12.530  4.00
   4936.00   12.529  4.00
   4940.00   12.528  4.00
   4944.00   12.528  4.00
   4948.00   12.528  4.00
   4952.00   12.528  4.00
   4956.00   12.527  4.00
   4960.00   12.526  4.00
   4964.00   12.526  4.00
   4968.00   12.525  4.00
   4972.00   12.524  4.00
   4976.00   12.523  4.00
   4980.00   12.521  4.00
   4984.00   12.520  4.00
   4988.00   12.518  4.00
   4992.00   12.516  4.00
   4996.00   12.513  4.00
   5000.00   12.511  4.00
   5004.00   12.509  4.00
   5008.00   12.507  4.00
   5012.00   12.506  4.00
   5016.00   12.504  4.00
   5020.00   12.503  4.00
   5024.00   12.503  4.00
   5028.00   12.503  4.00
   5032.00   12.503  4.00
   5036.00   12.503  4.00
   5040.00   12.502  4.00
   5044.00   12.502  4.00
   5048.00   12.501  4.00
   5052.00   12.501  4.00
   5056.00   12.500  4.00
   5060.00   12.498  4.00
   5064.00   12.497  4.00
   5068.00   12.495  4.00
   5072.00   12.493  4.00
   5076.00   12.491  4.00
   5080.00   12.489  4.00
   5084.00   12.487  4.00
   5088.00   12.486  4.00
   5092.00   12.484  4.00
   5096.00   12.483  4.00
   5100.00   12.481  4.00
   5104.00   12.480  4.00
   5108.00   12.478  4.00
   5112.00   12.476  4.00
   5116.00   12.475  4.00
   5120.00   12.474  4.00
   5124.00   12.473  4.00
   5128.00   12.472  4.00
   5132.00   12.471  4.00
   5136.00   12.470  4.00
   5140.00   12.470  4.00
   5144.00   12.469  4.00
   5148.00   12.469  4.00
   5152.00   12.469  4.00
   5156.00   12.468  4.00
   5160.00   12.467  4.00
   5164.00   12.466  4.00
   5168.00   12.464  4.00
   5172.00   12.463  4.00
   5176.00   12.461  4.00
   5180.00   12.459  4.00
   5184.00   12.456  4.00
   5188.00   12.453  4.00
   5192.00   12.451  4.00
   5196.00   12.449  4.00
   5200.00   12.447  4.00
   5204.00   12.445  4.00
   5208.00   12.443  4.00
   5212.00   12.441  4.00
   5216.00   12.439  4.00
   5220.00   12.438  4.00
   5224.00   12.437  4.00
   5228.00   12.436  4.00
   5232.00   12.435  4.00
   5236.00   12.434  4.00
   5240.00   12.434  4.00
   5244.00   12.433  4.00
   5248.00   12.434  4.00
   5252.00   12.434  4.00
   5256.00   12.433  4.00
   5260.00   12.433  4.00
   5264.00   12.432  4.00
   5268.00   12.431  4.00
   5272.00   12.429  4.00
   5276.00   12.428  4.00
   5280.00   12.427  4.00
   5284.00   12.425  4.00
   5288.00   12.424  4.00
   5292.00   12.423  4.00
   5296.00   12.422  4.00
   5300.00   12.421  4.00
   5304.00   12.421  4.00
   5308.00   12.420  4.00
   5312.00   12.420  4.00
   5316.00   12.419  4.00
   5320.00   12.418  4.00
   5324.00   12.418  4.00
   5328.00   12.417  4.00
   5332.00   12.416  4.00
   5336.00   12.415  4.00
   5340.00   12.414  4.00
   5344.00   12.413  4.00
   5348.00   12.412  4.00
   5352.00   12.412  4.00
   5356.00   12.411  4.00
   5360.00   12.410  4.00
   5364.00   12.409  4.00
   5368.00   12.408  4.00
   5372.00   12.408  4.00
   5376.00   12.407  4.00
   5380.00   12.406  4.00
   5384.00   12.406  4.00
   5388.00   12.406  4.00
   5392.00   12.405  4.00
   5396.00   12.405  4.00
   5400.00   12.404  4.00
   5404.00   12.404  4.00
   5408.00   12.404  4.00
   5412.00   12.403  4.00
   5416.00   12.403  4.00
   5420.00   12.402  4.00
   5424.00   12.401  4.00
   5428.00   12.400  4.00
   5432.00   12.399  4.00
   5436.00   12.398  4.00
   5440.00   12.396  4.00
   5444.00   12.395  4.00
   5448.00   12.394  4.00
   5452.00   12.392  4.00
   5456.00   12.390  4.00
   5460.00   12.389  4.00
   5464.00   12.388  4.00
   5468.00   12.387  4.00
   5472.00   12.386  4.00
   5476.00   12.385  4.00
   5480.00   12.385  4.00
   5484.00   12.384  4.00
   5488.00   12.384  4.00
   5492.00   12.384  4.00
   5496.00   12.383  4.00
   5500.00   12.383  4.00
   5504.00   12.382  4.00
   5508.00   12.382  4.00
   5512.00   12.381  4.00
   5516.00   12.381  4.00
   5520.00   12.380  4.00
   5524.00   12.379  4.00
   5528.00   12.378  4.00
   5532.00   12.378  4.00
   5536.00   12.377  4.00
   5540.00   12.376  4.00
   5544.00   12.375  4.00
   5548.00   12.374  4.00
   5552.00   12.373  4.00
   5556.00   12.373  4.00
   5560.00   12.373  4.00
   5564.00   12.374  4.00
   5568.00   12.374  4.00
   5572.00   12.374  4.00
   5576.00   12.374  4.00
   5580.00   12.374  4.00
   5584.00   12.373  4.00
   5588.00   12.373  4.00
   5592.00   12.372  4.00
   5596.00   12.371  4.00
   5600.00   12.370  4.00
   5604.00   12.368  4.00
   5608.00   12.366  4.00
   5612.00   12.366  4.00
   5616.00   12.365  4.00
   5620.00   12.365  4.00
   5624.00   12.364  4.00
   5628.00   12.364  4.00
   5632.00   12.364  4.00
   5636.00   12.365  4.00
   5640.00   12.366  4.00
   5644.00   12.367  4.00
   5648.00   12.366  4.00
   5652.00   12.366  4.00
   5656.00   12.365  4.00
   5660.00   12.364  4.00
   5664.00   12.363  4.00
   5668.00   12.361  4.00
   5672.00   12.360  4.00
   5676.00   12.359  4.00
   5680.00   12.358  4.00
   5684.00   12.359  4.00
   5688.00   12.359  4.00
   5692.00   12.359  4.00
   5696.00   12.359  4.00
   5700.00   12.358  4.00
   5704.00   12.358  4.00
   5708.00   12.357  4.00
   5712.00   12.357  4.00
   5716.00   12.355  4.00
   5720.00   12.354  4.00
   5724.00   12.353  4.00
   5728.00   12.353  4.00
   5732.00   12.353  4.00
   5736.00   12.353  4.00
   5740.00   12.352  4.00
   5744.00   12.351  4.00
   5748.00   12.351  4.00
   5752.00   12.350  4.00
   5756.00   12.349  4.00
   5760.00   12.348  4.00
   5764.00   12.348  4.00
   5768.00   12.348  4.00
   5772.00   12.348  4.00
   5776.00   12.349  4.00
   5780.00   12.350  4.00
   5784.00   12.350  4.00
   5788.00   12.351  4.00
   5792.00   12.351  4.00
   5796.00   12.351  4.00
   5800.00   12.350  4.00
   5804.00   12.350  4.00
   5808.00   12.349  4.00
   5812.00   12.349  4.00
   5816.00   12.348  4.00
   5820.00   12.348  4.00
   5824.00   12.347  4.00
   5828.00   12.347  4.00
   5832.00   12.346  4.00
   5836.00   12.346  4.00
   5840.00   12.345  4.00
   5844.00   12.345  4.00
   5848.00   12.345  4.00
   5852.00   12.344  4.00
   5856.00   12.344  4.00
   5860.00   12.343  4.00
   5864.00   12.343  4.00
   5868.00   12.343  4.00
   5872.00   12.342  4.00
   5876.00   12.342  4.00
   5880.00   12.341  4.00
   5884.00   12.341  4.00
   5888.00   12.340  4.00
   5892.00   12.340  4.00
   5896.00   12.340  4.00
   5900.00   12.339  4.00
   5904.00   12.339  4.00
   5908.00   12.338  4.00
   5912.00   12.338  4.00
   5916.00   12.338  4.00
   5920.00   12.337  4.00
   5924.00   12.337  4.00
   5928.00   12.337  4.00
   5932.00   12.336  4.00
   5936.00   12.336  4.00
   5940.00   12.336  4.00
   5944.00   12.336  4.00
   5948.00   12.336  4.00
   5952.00   12.336  4.00
   5956.00   12.336  4.00
   5960.00   12.337  4.00
   5964.00   12.337  4.00
   5968.00   12.337  4.00
   5972.00   12.336  4.00
   5976.00   12.335  4.00
   5980.00   12.334  4.00
   5984.00   12.334  4.00
   5988.00   12.333  4.00
   5992.00   12.332  4.00
   5996.00   12.330  4.00
   6000.00   12.329  4.00
   6004.00   12.328  4.00
   6008.00   12.327  4.00
   6012.00   12.327  4.00
   6016.00   12.327  4.00
   6020.00   12.327  4.00
   6024.00   12.327  4.00
   6028.00   12.328  4.00
   6032.00   12.329  4.00
   6036.00   12.329  4.00
   6040.00   12.330  4.00
   6044.00   12.330  4.00
   6048.00   12.330  4.00
   6052.00   12.329  4.00
   6056.00   12.329  4.00
   6060.00   12.328  4.00
   6064.00   12.328  4.00
   6068.00   12.327  4.00
   6072.00   12.327  4.00
   6076.00   12.326  4.00
   6080.00   12.325  4.00
   6084.00   12.325  4.00
   6088.00   12.324  4.00
   6092.00   12.324  4.00
   6096.00   12.323  4.00
   6100.00   12.323  4.00
   6104.00   12.322  4.00
   6108.00   12.322  4.00
   6112.00   12.321  4.00
   6116.00   12.321  4.00
   6120.00   12.320  4.00
   6124.00   12.320  4.00
   6128.00   12.319  4.00
   6132.00   12.319  4.00
   6136.00   12.318  4.00
   6140.00   12.318  4.00
   6144.00   12.317  4.00
   6148.00   12.317  4.00
   6152.00   12.316  4.00
   6156.00   12.316  4.00
   6160.00   12.316  4.00
   6164.00   12.316  4.00
   6168.00   12.317  4.00
   6172.00   12.317  4.00
   6176.00   12.317  4.00
   6180.00   12.318  4.00
   6184.00   12.318  4.00
   6188.00   12.319  4.00
   6192.00   12.320  4.00
   6196.00   12.320  4.00
   6200.00   12.321  4.00
   6204.00   12.321  4.00
   6208.00   12.321  4.00
   6212.00   12.321  4.00
   6216.00   12.321  4.00
   6220.00   12.321  4.00
   6224.00   12.321  4.00
   6228.00   12.321  4.00
   6232.00   12.322  4.00
   6236.00   12.322  4.00
   6240.00   12.321  4.00
   6244.00   12.321  4.00
   6248.00   12.320  4.00
   6252.00   12.319  4.00
   6256.00   12.318  4.00
   6260.00   12.317  4.00
   6264.00   12.317  4.00
   6268.00   12.316  4.00
   6272.00   12.316  4.00
   6276.00   12.316  4.00
   6280.00   12.316  4.00
   6284.00   12.317  4.00
   6288.00   12.317  4.00
   6292.00   12.316  4.00
   6296.00   12.316  4.00
   6300.00   12.315  4.00
   6304.00   12.314  4.00
   6308.00   12.313  4.00
   6312.00   12.312  4.00
   6316.00   12.312  4.00
   6320.00   12.311  4.00
   6324.00   12.311  4.00
   6328.00   12.310  4.00
   6332.00   12.310  4.00
   6336.00   12.309  4.00
   6340.00   12.309  4.00
   6344.00   12.308  4.00
   6348.00   12.308  4.00
   6352.00   12.308  4.00
   6356.00   12.308  4.00
   6360.00   12.307  4.00
   6364.00   12.307  4.00
   6368.00   12.307  4.00
   6372.00   12.306  4.00
   6376.00   12.305  4.00
   6380.00   12.305  4.00
   6384.00   12.304  4.00
   6388.00   12.304  4.00
   6392.00   12.303  4.00
   6396.00   12.302  4.00
   6400.00   12.302  4.00
   6404.00   12.301  4.00
   6408.00   12.301  4.00
   6412.00   12.301  4.00
   6416.00   12.300  4.00
   6420.00   12.300  4.00
   6424.00   12.299  4.00
   6428.00   12.299  4.00
   6432.00   12.298  4.00
   6436.00   12.298  4.00
   6440.00   12.297  4.00
   6444.00   12.297  4.00
   6448.00   12.296  4.00
   6452.00   12.296  4.00
   6456.00   12.295  4.00
   6460.00   12.295  4.00
   6464.00   12.294  4.00
   6468.00   12.294  4.00
   6472.00   12.293  4.00
   6476.00   12.293  4.00
   6480.00   12.292  4.00
   6484.00   12.291  4.00
   6488.00   12.291  4.00
   6492.00   12.290  4.00
   6496.00   12.289  4.00
   6500.00   12.287  4.00
   6504.00   12.286  4.00
   6508.00   12.286  4.00
   6512.00   12.285  4.00
   6516.00   12.284  4.00
   6520.00   12.282  4.00
   6524.00   12.281  4.00
   6528.00   12.281  4.00
   6532.00   12.280  4.00
   6536.00   12.280  4.00
   6540.00   12.280  4.00
   6544.00   12.279  4.00
   6548.00   12.279  4.00
   6552.00   12.279  4.00
   6556.00   12.280  4.00
   6560.00   12.280  4.00
   6564.00   12.280  4.00
   6568.00   12.279  4.00
   6572.00   12.279  4.00
   6576.00   12.278  4.00
   6580.00   12.278  4.00
   6584.00   12.277  4.00
   6588.00   12.277  4.00
   6592.00   12.277  4.00
   6596.00   12.277  4.00
   6600.00   12.277  4.00
   6604.00   12.277  4.00
   6608.00   12.276  4.00
   6612.00   12.276  4.00
   6616.00   12.275  4.00
   6620.00   12.275  4.00
   6624.00   12.274  4.00
   6628.00   12.273  4.00
   6632.00   12.272  4.00
   6636.00   12.271  4.00
   6640.00   12.270  4.00
   6644.00   12.270  4.00
   6648.00   12.269  4.00
   6652.00   12.269  4.00
   6656.00   12.268  4.00
   6660.00   12.268  4.00
   6664.00   12.267  4.00
   6668.00   12.266  4.00
   6672.00   12.265  4.00
   6676.00   12.265  4.00
   6680.00   12.265  4.00
   6684.00   12.264  4.00
   6688.00   12.264  4.00
   6692.00   12.264  4.00
   6696.00   12.264  4.00
   6700.00   12.264  4.00
   6704.00   12.263  4.00
   6708.00   12.263  4.00
   6712.00   12.263  4.00
   6716.00   12.262  4.00
   6720.00   12.262  4.00
   6724.00   12.262  4.00
   6728.00   12.262  4.00
   6732.00   12.262  4.00
   6736.00   12.261  4.00
   6740.00   12.261  4.00
   6744.00   12.262  4.00
   6748.00   12.262  4.00
   6752.00   12.261  4.00
   6756.00   12.261  4.00
   6760.00   12.261  4.00
   6764.00   12.261  4.00
   6768.00   12.262  4.00
   6772.00   12.262  4.00
   6776.00   12.262  4.00
   6780.00   12.261  4.00
   6784.00   12.260  4.00
   6788.00   12.260  4.00
   6792.00   12.259  4.00
   6796.00   12.258  4.00
   6800.00   12.257  4.00
   6804.00   12.256  4.00
   6808.00   12.255  4.00
   6812.00   12.255  4.00
   6816.00   12.255  4.00
   6820.00   12.255  4.00
   6824.00   12.255  4.00
   6828.00   12.255  4.00
   6832.00   12.256  4.00
   6836.00   12.255  4.00
   6840.00   12.255  4.00
   6844.00   12.254  4.00
   6848.00   12.253  4.00
   6852.00   12.252  4.00
   6856.00   12.253  4.00
   6860.00   12.254  4.00
   6864.00   12.255  4.00
   6868.00   12.256  4.00
   6872.00   12.257  4.00
   6876.00   12.257  4.00
   6880.00   12.258  4.00
   6884.00   12.258  4.00
   6888.00   12.259  4.00
   6892.00   12.258  4.00
   6896.00   12.256  4.00
   6900.00   12.254  4.00
   6904.00   12.253  4.00
   6908.00   12.252  4.00
   6912.00   12.251  4.00
   6916.00   12.249  4.00
   6920.00   12.248  4.00
   6924.00   12.247  4.00
   6928.00   12.246  4.00
   6932.00   12.245  4.00
   6936.00   12.244  4.00
   6940.00   12.244  4.00
   6944.00   12.244  4.00
   6948.00   12.244  4.00
   6952.00   12.244  4.00
   6956.00   12.245  4.00
   6960.00   12.245  4.00
   6964.00   12.246  4.00
   6968.00   12.246  4.00
   6972.00   12.245  4.00
   6976.00   12.245  4.00
   6980.00   12.244  4.00
   6984.00   12.242  4.00
   6988.00   12.241  4.00
   6992.00   12.240  4.00
   6996.00   12.240  4.00
   7000.00   12.240  4.00
   7004.00   12.240  4.00
   7008.00   12.240  4.00
   7012.00   12.240  4.00
   7016.00   12.240  4.00
   7020.00   12.241  4.00
   7024.00   12.240  4.00
   7028.00   12.240  4.00
   7032.00   12.239  4.00
   7036.00   12.238  4.00
   7040.00   12.238  4.00
   7044.00   12.238  4.00
   7048.00   12.239  4.00
   7052.00   12.239  4.00
   7056.00   12.239  4.00
   7060.00   12.239  4.00
   7064.00   12.240  4.00
   7068.00   12.241  4.00
   7072.00   12.242  4.00
   7076.00   12.243  4.00
   7080.00   12.244  4.00
   7084.00   12.244  4.00
   7088.00   12.244  4.00
   7092.00   12.245  4.00
   7096.00   12.244  4.00
   7100.00   12.244  4.00
   7104.00   12.244  4.00
   7108.00   12.243  4.00
   7112.00   12.242  4.00
   7116.00   12.241  4.00
   7120.00   12.241  4.00
   7124.00   12.242  4.00
   7128.00   12.242  4.00
   7132.00   12.243  4.00
   7136.00   12.243  4.00
   7140.00   12.243  4.00
   7144.00   12.243  4.00
   7148.00   12.242  4.00
   7152.00   12.241  4.00
   7156.00   12.241  4.00
   7160.00   12.241  4.00
   7164.00   12.240  4.00
   7168.00   12.239  4.00
   7172.00   12.238  4.00
   7176.00   12.237  4.00
   7180.00   12.237  4.00
   7184.00   12.237  4.00
   7188.00   12.237  4.00
   7192.00   12.237  4.00
   7196.00   12.237  4.00
   7200.00   12.237  4.00
   7204.00   12.237  4.00
   7208.00   12.238  4.00
   7212.00   12.239  4.00
   7216.00   12.238  4.00
   7220.00   12.238  4.00
   7224.00   12.237  4.00
   7228.00   12.237  4.00
   7232.00   12.237  4.00
   7236.00   12.236  4.00
   7240.00   12.236  4.00
   7244.00   12.236  4.00
   7248.00   12.237  4.00
   7252.00   12.238  4.00
   7256.00   12.239  4.00
   7260.00   12.239  4.00
   7264.00   12.239  4.00
   7268.00   12.239  4.00
   7272.00   12.239  4.00
   7276.00   12.239  4.00
   7280.00   12.238  4.00
   7284.00   12.237  4.00
   7288.00   12.237  4.00
   7292.00   12.237  4.00
   7296.00   12.238  4.00
   7300.00   12.238  4.00
   7304.00   12.238  4.00
   7308.00   12.238  4.00
   7312.00   12.238  4.00
   7316.00   12.238  4.00
   7320.00   12.237  4.00
   7324.00   12.237  4.00
   7328.00   12.236  4.00
   7332.00   12.235  4.00
   7336.00   12.235  4.00
   7340.00   12.235  4.00
   7344.00   12.235  4.00
   7348.00   12.236  4.00
   7352.00   12.237  4.00
   7356.00   12.238  4.00
   7360.00   12.239  4.00
   7364.00   12.240  4.00
   7368.00   12.241  4.00
   7372.00   12.242  4.00
   7376.00   12.243  4.00
   7380.00   12.243  4.00
   7384.00   12.244  4.00
   7388.00   12.245  4.00
   7392.00   12.245  4.00
   7396.00   12.245  4.00
   7400.00   12.245  4.00
   7404.00   12.245  4.00
   7408.00   12.243  4.00
   7412.00   12.242  4.00
   7416.00   12.241  4.00
   7420.00   12.240  4.00
   7424.00   12.239  4.00
   7428.00   12.239  4.00
   7432.00   12.238  4.00
   7436.00   12.237  4.00
   7440.00   12.237  4.00
   7444.00   12.238  4.00
   7448.00   12.238  4.00
   7452.00   12.239  4.00
   7456.00   12.239  4.00
   7460.00   12.240  4.00
   7464.00   12.240  4.00
   7468.00   12.240  4.00
   7472.00   12.241  4.00
   7476.00   12.241  4.00
   7480.00   12.240  4.00
   7484.00   12.240  4.00
   7488.00   12.240  4.00
   7492.00   12.240  4.00
   7496.00   12.241  4.00
   7500.00   12.241  4.00
   7504.00   12.242  4.00
   7508.00   12.242  4.00
   7512.00   12.242  4.00
   7516.00   12.242  4.00
   7520.00   12.242  4.00
   7524.00   12.242  4.00
   7528.00   12.241  4.00
   7532.00   12.241  4.00
   7536.00   12.240  4.00
   7540.00   12.240  4.00
   7544.00   12.239  4.00
   7548.00   12.239  4.00
   7552.00   12.239  4.00
   7556.00   12.240  4.00
   7560.00   12.240  4.00
   7564.00   12.239  4.00
   7568.00   12.239  4.00
   7572.00   12.239  4.00
   7576.00   12.240  4.00
   7580.00   12.240  4.00
   7584.00   12.240  4.00
   7588.00   12.240  4.00
   7592.00   12.240  4.00
   7596.00   12.240  4.00
   7600.00   12.240  4.00
   7604.00   12.240  4.00
   7608.00   12.240  4.00
   7612.00   12.240  4.00
   7616.00   12.240  4.00
   7620.00   12.240  4.00
   7624.00   12.240  4.00
   7628.00   12.240  4.00
   7632.00   12.240  4.00
   7636.00   12.240  4.00
   7640.00   12.240  4.00
   7644.00   12.240  4.00
   7648.00   12.240  4.00
   7652.00   12.241  4.00
   7656.00   12.241  4.00
   7660.00   12.241  4.00
   7664.00   12.241  4.00
   7668.00   12.241  4.00
   7672.00   12.241  4.00
   7676.00   12.241  4.00
   7680.00   12.241  4.00
   7684.00   12.241  4.00
   7688.00   12.241  4.00
   7692.00   12.241  4.00
   7696.00   12.240  4.00
   7700.00   12.240  4.00
   7704.00   12.240  4.00
   7708.00   12.240  4.00
   7712.00   12.240  4.00
   7716.00   12.240  4.00
   7720.00   12.240  4.00
   7724.00   12.239  4.00
   7728.00   12.239  4.00
   7732.00   12.238  4.00
   7736.00   12.237  4.00
   7740.00   12.236  4.00
   7744.00   12.236  4.00
   7748.00   12.237  4.00
   7752.00   12.238  4.00
   7756.00   12.239  4.00
   7760.00   12.240  4.00
   7764.00   12.241  4.00
   7768.00   12.242  4.00
   7772.00   12.243  4.00
   7776.00   12.243  4.00
   7780.00   12.243  4.00
   7784.00   12.242  4.00
   7788.00   12.241  4.00
   7792.00   12.241  4.00
   7796.00   12.241  4.00
   7800.00   12.241  4.00
   7804.00   12.241  4.00
   7808.00   12.241  4.00
   7812.00   12.241  4.00
   7816.00   12.240  4.00
   7820.00   12.239  4.00
   7824.00   12.239  4.00
   7828.00   12.239  4.00
   7832.00   12.240  4.00
   7836.00   12.239  4.00
   7840.00   12.240  4.00
   7844.00   12.241  4.00
   7848.00   12.243  4.00
   7852.00   12.244  4.00
   7856.00   12.244  4.00
   7860.00   12.244  4.00
   7864.00   12.245  4.00
   7868.00   12.245  4.00
   7872.00   12.244  4.00
   7876.00   12.244  4.00
   7880.00   12.243  4.00
   7884.00   12.243  4.00
   7888.00   12.243  4.00
   7892.00   12.243  4.00
   7896.00   12.243  4.00
   7900.00   12.242  4.00
   7904.00   12.241  4.00
   7908.00   12.241  4.00
   7912.00   12.242  4.00
   7916.00   12.242  4.00
   7920.00   12.242  4.00
   7924.00   12.243  4.00
   7928.00   12.243  4.00
   7932.00   12.244  4.00
   7936.00   12.245  4.00
   7940.00   12.246  4.00
   7944.00   12.247  4.00
   7948.00   12.247  4.00
   7952.00   12.248  4.00
   7956.00   12.248  4.00
   7960.00   12.248  4.00
   7964.00   12.249  4.00
   7968.00   12.249  4.00
   7972.00   12.249  4.00
   7976.00   12.250  4.00
   7980.00   12.251  4.00
   7984.00   12.252  4.00
   7988.00   12.254  4.00
   7992.00   12.255  4.00
   7996.00   12.256  4.00
   8000.00   12.256  4.00
   8004.00   12.257  4.00
   8008.00   12.257  4.00
   8012.00   12.257  4.00
   8016.00   12.256  4.00
   8020.00   12.256  4.00
   8024.00   12.256  4.00
   8028.00   12.256  4.00
   8032.00   12.255  4.00
   8036.00   12.255  4.00
   8040.00   12.255  4.00
   8044.00   12.256  4.00
   8048.00   12.256  4.00
   8052.00   12.256  4.00
   8056.00   12.256  4.00
   8060.00   12.256  4.00
   8064.00   12.256  4.00
   8068.00   12.257  4.00
   8072.00   12.257  4.00
   8076.00   12.257  4.00
   8080.00   12.256  4.00
   8084.00   12.256  4.00
   8088.00   12.256  4.00
   8092.00   12.256  4.00
   8096.00   12.256  4.00
   8100.00   12.256  4.00
   8104.00   12.256  4.00
   8108.00   12.256  4.00
   8112.00   12.256  4.00
   8116.00   12.256  4.00
   8120.00   12.256  4.00
   8124.00   12.256  4.00
   8128.00   12.255  4.00
   8132.00   12.255  4.00
   8136.00   12.254  4.00
   8140.00   12.254  4.00
   8144.00   12.253  4.00
   8148.00   12.252  4.00
   8152.00   12.252  4.00
   8156.00   12.251  4.00
   8160.00   12.250  4.00
   8164.00   12.250  4.00
   8168.00   12.252  4.00
   8172.00   12.254  4.00
   8176.00   12.256  4.00
   8180.00   12.257  4.00
   8184.00   12.259  4.00
   8188.00   12.261  4.00
   8192.00   12.263  4.00
   8196.00   12.264  4.00
   8200.00   12.265  4.00
   8204.00   12.265  4.00
   8208.00   12.263  4.00
   8212.00   12.261  4.00
   8216.00   12.260  4.00
   8220.00   12.259  4.00
   8224.00   12.258  4.00
   8228.00   12.257  4.00
   8232.00   12.258  4.00
   8236.00   12.258  4.00
   8240.00   12.259  4.00
   8244.00   12.260  4.00
   8248.00   12.262  4.00
   8252.00   12.264  4.00
   8256.00   12.264  4.00
   8260.00   12.264  4.00
   8264.00   12.264  4.00
   8268.00   12.263  4.00
   8272.00   12.262  4.00
   8276.00   12.262  4.00
   8280.00   12.262  4.00
   8284.00   12.261  4.00
   8288.00   12.261  4.00
   8292.00   12.261  4.00
   8296.00   12.262  4.00
   8300.00   12.263  4.00
   8304.00   12.263  4.00
   8308.00   12.263  4.00
   8312.00   12.262  4.00
   8316.00   12.263  4.00
   8320.00   12.264  4.00
   8324.00   12.264  4.00
   8328.00   12.263  4.00
   8332.00   12.262  4.00
   8336.00   12.261  4.00
   8340.00   12.261  4.00
   8344.00   12.261  4.00
   8348.00   12.262  4.00
   8352.00   12.263  4.00
   8356.00   12.264  4.00
   8360.00   12.265  4.00
   8364.00   12.267  4.00
   8368.00   12.270  4.00
   8372.00   12.271  4.00
   8376.00   12.272  4.00
   8380.00   12.272  4.00
   8384.00   12.272  4.00
   8388.00   12.271  4.00
   8392.00   12.270  4.00
   8396.00   12.268  4.00
   8400.00   12.268  4.00
   8404.00   12.267  4.00
   8408.00   12.267  4.00
   8412.00   12.267  4.00
   8416.00   12.267  4.00
   8420.00   12.267  4.00
   8424.00   12.267  4.00
   8428.00   12.268  4.00
   8432.00   12.270  4.00
   8436.00   12.272  4.00
   8440.00   12.273  4.00
   8444.00   12.274  4.00
   8448.00   12.274  4.00
   8452.00   12.275  4.00
   8456.00   12.275  4.00
   8460.00   12.275  4.00
   8464.00   12.275  4.00
   8468.00   12.276  4.00
   8472.00   12.276  4.00
   8476.00   12.277  4.00
   8480.00   12.279  4.00
   8484.00   12.280  4.00
   8488.00   12.280  4.00
   8492.00   12.280  4.00
   8496.00   12.280  4.00
   8500.00   12.279  4.00
   8504.00   12.279  4.00
   8508.00   12.280  4.00
   8512.00   12.280  4.00
   8516.00   12.281  4.00
   8520.00   12.283  4.00
   8524.00   12.285  4.00
   8528.00   12.287  4.00
   8532.00   12.289  4.00
   8536.00   12.290  4.00
   8540.00   12.290  4.00
   8544.00   12.290  4.00
   8548.00   12.290  4.00
   8552.00   12.290  4.00
   8556.00   12.289  4.00
   8560.00   12.288  4.00
   8564.00   12.288  4.00
   8568.00   12.287  4.00
   8572.00   12.287  4.00
   8576.00   12.286  4.00
   8580.00   12.285  4.00
   8584.00   12.284  4.00
   8588.00   12.284  4.00
   8592.00   12.284  4.00
   8596.00   12.285  4.00
   8600.00   12.285  4.00
   8604.00   12.286  4.00
   8608.00   12.286  4.00
   8612.00   12.287  4.00
   8616.00   12.289  4.00
   8620.00   12.289  4.00
   8624.00   12.288  4.00
   8628.00   12.287  4.00
   8632.00   12.285  4.00
   8636.00   12.284  4.00
   8640.00   12.283  4.00
   8644.00   12.285  4.00
   8648.00   12.286  4.00
   8652.00   12.287  4.00
   8656.00   12.288  4.00
   8660.00   12.290  4.00
   8664.00   12.291  4.00
   8668.00   12.292  4.00
   8672.00   12.293  4.00
   8676.00   12.294  4.00
   8680.00   12.295  4.00
   8684.00   12.295  4.00
   8688.00   12.295  4.00
   8692.00   12.295  4.00
   8696.00   12.295  4.00
   8700.00   12.295  4.00
   8704.00   12.296  4.00
   8708.00   12.297  4.00
   8712.00   12.297  4.00
   8716.00   12.296  4.00
   8720.00   12.295  4.00
   8724.00   12.295  4.00
   8728.00   12.296  4.00
   8732.00   12.297  4.00
   8736.00   12.298  4.00
   8740.00   12.297  4.00
   8744.00   12.297  4.00
   8748.00   12.297  4.00
   8752.00   12.297  4.00
   8756.00   12.299  4.00
   8760.00   12.299  4.00
   8764.00   12.298  4.00
   8768.00   12.297  4.00
   8772.00   12.295  4.00
   8776.00   12.295  4.00
   8780.00   12.295  4.00
   8784.00   12.296  4.00
   8788.00   12.296  4.00
   8792.00   12.296  4.00
   8796.00   12.296  4.00
   8800.00   12.298  4.00
   8804.00   12.300  4.00
   8808.00   12.302  4.00
   8812.00   12.302  4.00
   8816.00   12.302  4.00
   8820.00   12.302  4.00
   8824.00   12.302  4.00
   8828.00   12.302  4.00
   8832.00   12.302  4.00
   8836.00   12.302  4.00
   8840.00   12.302  4.00
   8844.00   12.301  4.00
   8848.00   12.301  4.00
   8852.00   12.301  4.00
   8856.00   12.300  4.00
   8860.00   12.300  4.00
   8864.00   12.299  4.00
   8868.00   12.299  4.00
   8872.00   12.299  4.00
   8876.00   12.300  4.00
   8880.00   12.300  4.00
   8884.00   12.299  4.00
   8888.00   12.298  4.00
   8892.00   12.297  4.00
   8896.00   12.297  4.00
   8900.00   12.297  4.00
   8904.00   12.296  4.00
   8908.00   12.295  4.00
   8912.00   12.295  4.00
   8916.00   12.296  4.00
   8920.00   12.297  4.00
   8924.00   12.299  4.00
   8928.00   12.301  4.00
   8932.00   12.302  4.00
   8936.00   12.304  4.00
   8940.00   12.307  4.00
   8944.00   12.308  4.00
   8948.00   12.310  4.00
   8952.00   12.311  4.00
   8956.00   12.310  4.00
   8960.00   12.309  4.00
   8964.00   12.308  4.00
   8968.00   12.305  4.00
   8972.00   12.301  4.00
   8976.00   12.298  4.00
   8980.00   12.296  4.00
   8984.00   12.295  4.00
   8988.00   12.294  4.00
   8992.00   12.295  4.00
   8996.00   12.297  4.00
   9000.00   12.298  4.00
   9004.00   12.300  4.00
   9008.00   12.303  4.00
   9012.00   12.305  4.00
   9016.00   12.307  4.00
   9020.00   12.308  4.00
   9024.00   12.309  4.00
   9028.00   12.309  4.00
   9032.00   12.310  4.00
   9036.00   12.312  4.00
   9040.00   12.313  4.00
   9044.00   12.313  4.00
   9048.00   12.312  4.00
   9052.00   12.310  4.00
   9056.00   12.308  4.00
   9060.00   12.307  4.00
   9064.00   12.304  4.00
   9068.00   12.301  4.00
   9072.00   12.299  4.00
   9076.00   12.297  4.00
   9080.00   12.297  4.00
   9084.00   12.298  4.00
   9088.00   12.299  4.00
   9092.00   12.302  4.00
   9096.00   12.305  4.00
   9100.00   12.307  4.00
   9104.00   12.310  4.00
   9108.00   12.312  4.00
   9112.00   12.313  4.00
   9116.00   12.313  4.00
   9120.00   12.316  4.00
   9124.00   12.319  4.00
   9128.00   12.321  4.00
   9132.00   12.320  4.00
   9136.00   12.320  4.00
   9140.00   12.322  4.00
   9144.00   12.324  4.00
   9148.00   12.326  4.00
   9152.00   12.326  4.00
   9156.00   12.324  4.00
   9160.00   12.320  4.00
   9164.00   12.317  4.00
   9168.00   12.315  4.00
   9172.00   12.315  4.00
   9176.00   12.314  4.00
   9180.00   12.312  4.00
   9184.00   12.312  4.00
   9188.00   12.313  4.00
   9192.00   12.315  4.00
   9196.00   12.318  4.00
   9200.00   12.320  4.00
   9204.00   12.321  4.00
   9208.00   12.322  4.00
   9212.00   12.322  4.00
   9216.00   12.322  4.00
   9220.00   12.320  4.00
   9224.00   12.318  4.00
   9228.00   12.315  4.00
   9232.00   12.314  4.00
   9236.00   12.314  4.00
   9240.00   12.315  4.00
   9244.00   12.317  4.00
   9248.00   12.319  4.00
   9252.00   12.321  4.00
   9256.00   12.324  4.00
   9260.00   12.325  4.00
   9264.00   12.326  4.00
   9268.00   12.327  4.00
   9272.00   12.327  4.00
   9276.00   12.327  4.00
   9280.00   12.325  4.00
   9284.00   12.324  4.00
   9288.00   12.324  4.00
   9292.00   12.324  4.00
   9296.00   12.324  4.00
   9300.00   12.324  4.00
   9304.00   12.325  4.00
   9308.00   12.324  4.00
   9312.00   12.322  4.00
   9316.00   12.322  4.00
   9320.00   12.321  4.00
   9324.00   12.320  4.00
   9328.00   12.319  4.00
   9332.00   12.318  4.00
   9336.00   12.319  4.00
   9340.00   12.319  4.00
   9344.00   12.320  4.00
   9348.00   12.322  4.00
   9352.00   12.323  4.00
   9356.00   12.323  4.00
   9360.00   12.323  4.00
   9364.00   12.322  4.00
   9368.00   12.320  4.00
   9372.00   12.319  4.00
   9376.00   12.317  4.00
   9380.00   12.316  4.00
   9384.00   12.314  4.00
   9388.00   12.312  4.00
   9392.00   12.310  4.00
   9396.00   12.310  4.00
   9400.00   12.310  4.00
   9404.00   12.312  4.00
   9408.00   12.313  4.00
   9412.00   12.314  4.00
   9416.00   12.316  4.00
   9420.00   12.318  4.00
   9424.00   12.322  4.00
   9428.00   12.325  4.00
   9432.00   12.328  4.00
   9436.00   12.329  4.00
   9440.00   12.330  4.00
   9444.00   12.330  4.00
   9448.00   12.330  4.00
   9452.00   12.330  4.00
   9456.00   12.329  4.00
   9460.00   12.326  4.00
   9464.00   12.324  4.00
   9468.00   12.321  4.00
   9472.00   12.317  4.00
   9476.00   12.314  4.00
   9480.00   12.311  4.00
   9484.00   12.309  4.00
   9488.00   12.308  4.00
   9492.00   12.308  4.00
   9496.00   12.308  4.00
   9500.00   12.308  4.00
   9504.00   12.309  4.00
   9508.00   12.312  4.00
   9512.00   12.315  4.00
   9516.00   12.320  4.00
   9520.00   12.324  4.00
   9524.00   12.327  4.00
   9528.00   12.329  4.00
   9532.00   12.331  4.00
   9536.00   12.334  4.00
   9540.00   12.338  4.00
   9544.00   12.341  4.00
   9548.00   12.343  4.00
   9552.00   12.345  4.00
   9556.00   12.348  4.00
   9560.00   12.351  4.00
   9564.00   12.353  4.00
   9568.00   12.353  4.00
   9572.00   12.352  4.00
   9576.00   12.350  4.00
   9580.00   12.347  4.00
   9584.00   12.346  4.00
   9588.00   12.344  4.00
   9592.00   12.343  4.00
   9596.00   12.341  4.00
   9600.00   12.341  4.00
   9604.00   12.342  4.00
   9608.00   12.343  4.00
   9612.00   12.343  4.00
   9616.00   12.343  4.00
   9620.00   12.341  4.00
   9624.00   12.339  4.00
   9628.00   12.337  4.00
   9632.00   12.337  4.00
   9636.00   12.338  4.00
   9640.00   12.339  4.00
   9644.00   12.340  4.00
   9648.00   12.341  4.00
   9652.00   12.343  4.00
   9656.00   12.346  4.00
   9660.00   12.350  4.00
   9664.00   12.354  4.00
   9668.00   12.356  4.00
   9672.00   12.357  4.00
   9676.00   12.359  4.00
   9680.00   12.361  4.00
   9684.00   12.363  4.00
   9688.00   12.366  4.00
   9692.00   12.368  4.00
   9696.00   12.369  4.00
   9700.00   12.369  4.00
   9704.00   12.370  4.00
   9708.00   12.373  4.00
   9712.00   12.375  4.00
   9716.00   12.376  4.00
   9720.00   12.377  4.00
   9724.00   12.378  4.00
   9728.00   12.378  4.00
   9732.00   12.378  4.00
   9736.00   12.377  4.00
   9740.00   12.377  4.00
   9744.00   12.376  4.00
   9748.00   12.374  4.00
   9752.00   12.372  4.00
   9756.00   12.371  4.00
   9760.00   12.371  4.00
   9764.00   12.370  4.00
   9768.00   12.371  4.00
   9772.00   12.372  4.00
   9776.00   12.373  4.00
   9780.00   12.374  4.00
   9784.00   12.376  4.00
   9788.00   12.377  4.00
   9792.00   12.376  4.00
   9796.00   12.375  4.00
   9800.00   12.375  4.00
   9804.00   12.375  4.00
   9808.00   12.376  4.00
   9812.00   12.376  4.00
   9816.00   12.377  4.00
   9820.00   12.378  4.00
   9824.00   12.380  4.00
   9828.00   12.382  4.00
   9832.00   12.385  4.00
   9836.00   12.387  4.00
   9840.00   12.387  4.00
   9844.00   12.386  4.00
   9848.00   12.385  4.00
   9852.00   12.384  4.00
   9856.00   12.383  4.00
   9860.00   12.382  4.00
   9864.00   12.382  4.00
   9868.00   12.382  4.00
   9872.00   12.382  4.00
   9876.00   12.384  4.00
   9880.00   12.387  4.00
   9884.00   12.389  4.00
   9888.00   12.390  4.00
   9892.00   12.390  4.00
   9896.00   12.388  4.00
   9900.00   12.386  4.00
   9904.00   12.385  4.00
   9908.00   12.384  4.00
   9912.00   12.384  4.00
   9916.00   12.383  4.00
   9920.00   12.384  4.00
   9924.00   12.386  4.00
   9928.00   12.388  4.00
   9932.00   12.391  4.00
   9936.00   12.395  4.00
   9940.00   12.396  4.00
   9944.00   12.397  4.00
   9948.00   12.397  4.00
   9952.00   12.397  4.00
   9956.00   12.396  4.00
   9960.00   12.395  4.00
   9964.00   12.394  4.00
   9968.00   12.394  4.00
   9972.00   12.394  4.00
   9976.00   12.395  4.00
   9980.00   12.397  4.00
   9984.00   12.398  4.00
   9988.00   12.399  4.00
   9992.00   12.400  4.00
   9996.00   12.401  4.00
  10000.00   12.670  4.00
